#F U:\Beamline I20\I20-1_EDE\Wigglers\xop\83mm-small-wiggler\EDE line ranges\0p9T-300mA-0p12x1p4mrad.dat
#C I20EDE 0.9T 300mA 0.12x1.4mrad
#S 1 File written by xplot on Tue Sep 10 16:36:39 2013
#N 2
#L    Energy [eV]  Flux [ph/s/0.1%bw]
50 1.21213E+013 
100 1.9209E+013 
150 2.51068E+013 
200 3.03198E+013 
250 3.5058E+013 
300 3.94344E+013 
350 4.35189E+013 
400 4.73589E+013 
450 5.0988E+013 
500 5.44317E+013 
550 5.77095E+013 
600 6.08373E+013 
650 6.38279E+013 
700 6.66919E+013 
750 6.94383E+013 
800 7.20749E+013 
850 7.46084E+013 
900 7.70448E+013 
950 7.93891E+013 
1000 8.16461E+013 
1050 8.382E+013 
1100 8.59144E+013 
1150 8.7933E+013 
1200 8.98789E+013 
1250 9.17548E+013 
1300 9.35637E+013 
1350 9.53078E+013 
1400 9.69896E+013 
1450 9.86112E+013 
1500 1.00175E+014 
1550 1.01682E+014 
1600 1.03135E+014 
1650 1.04535E+014 
1700 1.05884E+014 
1750 1.07183E+014 
1800 1.08434E+014 
1850 1.09639E+014 
1900 1.10798E+014 
1950 1.11913E+014 
2000 1.12985E+014 
2050 1.14015E+014 
2100 1.15005E+014 
2150 1.15955E+014 
2200 1.16867E+014 
2250 1.17741E+014 
2300 1.18578E+014 
2350 1.1938E+014 
2400 1.20148E+014 
2450 1.20881E+014 
2500 1.21581E+014 
2550 1.22249E+014 
2600 1.22886E+014 
2650 1.23492E+014 
2700 1.24068E+014 
2750 1.24615E+014 
2800 1.25134E+014 
2850 1.25625E+014 
2900 1.26088E+014 
2950 1.26526E+014 
3000 1.26937E+014 
3050 1.27323E+014 
3100 1.27684E+014 
3150 1.28021E+014 
3200 1.28335E+014 
3250 1.28626E+014 
3300 1.28895E+014 
3350 1.29141E+014 
3400 1.29367E+014 
3450 1.29571E+014 
3500 1.29755E+014 
3550 1.29919E+014 
3600 1.30063E+014 
3650 1.30189E+014 
3700 1.30296E+014 
3750 1.30385E+014 
3800 1.30457E+014 
3850 1.30511E+014 
3900 1.30548E+014 
3950 1.30569E+014 
4000 1.30573E+014 
4050 1.30563E+014 
4100 1.30536E+014 
4150 1.30495E+014 
4200 1.30439E+014 
4250 1.30369E+014 
4300 1.30285E+014 
4350 1.30188E+014 
4400 1.30077E+014 
4450 1.29954E+014 
4500 1.29818E+014 
4550 1.29669E+014 
4600 1.29509E+014 
4650 1.29337E+014 
4700 1.29153E+014 
4750 1.28959E+014 
4800 1.28753E+014 
4850 1.28538E+014 
4900 1.28312E+014 
4950 1.28075E+014 
5000 1.27829E+014 
5050 1.27574E+014 
5100 1.27309E+014 
5150 1.27036E+014 
5200 1.26753E+014 
5250 1.26462E+014 
5300 1.26163E+014 
5350 1.25855E+014 
5400 1.2554E+014 
5450 1.25217E+014 
5500 1.24887E+014 
5550 1.24549E+014 
5600 1.24204E+014 
5650 1.23853E+014 
5700 1.23495E+014 
5750 1.2313E+014 
5800 1.2276E+014 
5850 1.22383E+014 
5900 1.22E+014 
5950 1.21611E+014 
6000 1.21217E+014 
6050 1.20818E+014 
6100 1.20413E+014 
6150 1.20004E+014 
6200 1.19589E+014 
6250 1.1917E+014 
6300 1.18746E+014 
6350 1.18318E+014 
6400 1.17885E+014 
6450 1.17449E+014 
6500 1.17008E+014 
6550 1.16564E+014 
6600 1.16115E+014 
6650 1.15664E+014 
6700 1.15208E+014 
6750 1.1475E+014 
6800 1.14288E+014 
6850 1.13824E+014 
6900 1.13356E+014 
6950 1.12885E+014 
7000 1.12412E+014 
7050 1.11937E+014 
7100 1.11458E+014 
7150 1.10978E+014 
7200 1.10495E+014 
7250 1.1001E+014 
7300 1.09523E+014 
7350 1.09034E+014 
7400 1.08543E+014 
7450 1.0805E+014 
7500 1.07556E+014 
7550 1.0706E+014 
7600 1.06563E+014 
7650 1.06064E+014 
7700 1.05564E+014 
7750 1.05063E+014 
7800 1.0456E+014 
7850 1.04057E+014 
7900 1.03553E+014 
7950 1.03047E+014 
8000 1.02541E+014 
8050 1.02034E+014 
8100 1.01527E+014 
8150 1.01019E+014 
8200 1.0051E+014 
8250 1.00002E+014 
8300 9.94922E+013 
8350 9.89825E+013 
8400 9.84726E+013 
8450 9.79626E+013 
8500 9.74524E+013 
8550 9.69421E+013 
8600 9.64319E+013 
8650 9.59217E+013 
8700 9.54116E+013 
8750 9.49017E+013 
8800 9.4392E+013 
8850 9.38826E+013 
8900 9.33735E+013 
8950 9.28649E+013 
9000 9.23566E+013 
9050 9.18488E+013 
9100 9.13416E+013 
9150 9.0835E+013 
9200 9.03289E+013 
9250 8.98235E+013 
9300 8.93189E+013 
9350 8.88149E+013 
9400 8.83118E+013 
9450 8.78095E+013 
9500 8.73081E+013 
9550 8.68076E+013 
9600 8.6308E+013 
9650 8.58094E+013 
9700 8.53118E+013 
9750 8.48153E+013 
9800 8.43198E+013 
9850 8.38255E+013 
9900 8.33323E+013 
9950 8.28404E+013 
10000 8.23496E+013 
10050 8.186E+013 
10100 8.13718E+013 
10150 8.08848E+013 
10200 8.03992E+013 
10250 7.99148E+013 
10300 7.94319E+013 
10350 7.89504E+013 
10400 7.84703E+013 
10450 7.79917E+013 
10500 7.75145E+013 
10550 7.70388E+013 
10600 7.65647E+013 
10650 7.6092E+013 
10700 7.5621E+013 
10750 7.51515E+013 
10800 7.46836E+013 
10850 7.42173E+013 
10900 7.37527E+013 
10950 7.32897E+013 
11000 7.28283E+013 
11050 7.23687E+013 
11100 7.19107E+013 
11150 7.14545E+013 
11200 7.1E+013 
11250 7.05472E+013 
11300 7.00962E+013 
11350 6.9647E+013 
11400 6.91995E+013 
11450 6.87539E+013 
11500 6.831E+013 
11550 6.7868E+013 
11600 6.74278E+013 
11650 6.69894E+013 
11700 6.65529E+013 
11750 6.61182E+013 
11800 6.56854E+013 
11850 6.52545E+013 
11900 6.48255E+013 
11950 6.43983E+013 
12000 6.39731E+013 
12050 6.35497E+013 
12100 6.31283E+013 
12150 6.27088E+013 
12200 6.22912E+013 
12250 6.18756E+013 
12300 6.14619E+013 
12350 6.10501E+013 
12400 6.06403E+013 
12450 6.02324E+013 
12500 5.98265E+013 
12550 5.94225E+013 
12600 5.90205E+013 
12650 5.86205E+013 
12700 5.82224E+013 
12750 5.78263E+013 
12800 5.74322E+013 
12850 5.70401E+013 
12900 5.66499E+013 
12950 5.62617E+013 
13000 5.58755E+013 
13050 5.54913E+013 
13100 5.5109E+013 
13150 5.47288E+013 
13200 5.43505E+013 
13250 5.39742E+013 
13300 5.35998E+013 
13350 5.32275E+013 
13400 5.28571E+013 
13450 5.24888E+013 
13500 5.21224E+013 
13550 5.17579E+013 
13600 5.13955E+013 
13650 5.1035E+013 
13700 5.06765E+013 
13750 5.032E+013 
13800 4.99654E+013 
13850 4.96128E+013 
13900 4.92622E+013 
13950 4.89135E+013 
14000 4.85668E+013 
14050 4.82221E+013 
14100 4.78793E+013 
14150 4.75385E+013 
14200 4.71996E+013 
14250 4.68626E+013 
14300 4.65276E+013 
14350 4.61945E+013 
14400 4.58633E+013 
14450 4.55341E+013 
14500 4.52068E+013 
14550 4.48814E+013 
14600 4.45579E+013 
14650 4.42363E+013 
14700 4.39167E+013 
14750 4.35989E+013 
14800 4.3283E+013 
14850 4.29691E+013 
14900 4.2657E+013 
14950 4.23467E+013 
15000 4.20384E+013 
15050 4.17319E+013 
15100 4.14273E+013 
15150 4.11245E+013 
15200 4.08236E+013 
15250 4.05246E+013 
15300 4.02273E+013 
15350 3.9932E+013 
15400 3.96384E+013 
15450 3.93466E+013 
15500 3.90567E+013 
15550 3.87686E+013 
15600 3.84823E+013 
15650 3.81977E+013 
15700 3.7915E+013 
15750 3.76341E+013 
15800 3.73549E+013 
15850 3.70775E+013 
15900 3.68018E+013 
15950 3.6528E+013 
16000 3.62558E+013 
16050 3.59854E+013 
16100 3.57168E+013 
16150 3.54498E+013 
16200 3.51846E+013 
16250 3.49211E+013 
16300 3.46593E+013 
16350 3.43993E+013 
16400 3.41409E+013 
16450 3.38842E+013 
16500 3.36291E+013 
16550 3.33758E+013 
16600 3.31241E+013 
16650 3.2874E+013 
16700 3.26256E+013 
16750 3.23789E+013 
16800 3.21338E+013 
16850 3.18903E+013 
16900 3.16484E+013 
16950 3.14082E+013 
17000 3.11695E+013 
17050 3.09325E+013 
17100 3.0697E+013 
17150 3.04631E+013 
17200 3.02308E+013 
17250 3.00001E+013 
17300 2.97709E+013 
17350 2.95433E+013 
17400 2.93172E+013 
17450 2.90927E+013 
17500 2.88696E+013 
17550 2.86481E+013 
17600 2.84281E+013 
17650 2.82097E+013 
17700 2.79927E+013 
17750 2.77772E+013 
17800 2.75632E+013 
17850 2.73507E+013 
17900 2.71396E+013 
17950 2.693E+013 
18000 2.67218E+013 
18050 2.65151E+013 
18100 2.63099E+013 
18150 2.6106E+013 
18200 2.59036E+013 
18250 2.57026E+013 
18300 2.5503E+013 
18350 2.53048E+013 
18400 2.5108E+013 
18450 2.49126E+013 
18500 2.47185E+013 
18550 2.45258E+013 
18600 2.43345E+013 
18650 2.41445E+013 
18700 2.39559E+013 
18750 2.37686E+013 
18800 2.35826E+013 
18850 2.3398E+013 
18900 2.32147E+013 
18950 2.30327E+013 
19000 2.28519E+013 
19050 2.26725E+013 
19100 2.24944E+013 
19150 2.23175E+013 
19200 2.21419E+013 
19250 2.19676E+013 
19300 2.17945E+013 
19350 2.16227E+013 
19400 2.14521E+013 
19450 2.12828E+013 
19500 2.11146E+013 
19550 2.09477E+013 
19600 2.0782E+013 
19650 2.06175E+013 
19700 2.04542E+013 
19750 2.02921E+013 
19800 2.01312E+013 
19850 1.99714E+013 
19900 1.98129E+013 
19950 1.96555E+013 
20000 1.94992E+013 
20050 1.93441E+013 
20100 1.91901E+013 
20150 1.90372E+013 
20200 1.88855E+013 
20250 1.87349E+013 
20300 1.85854E+013 
20350 1.8437E+013 
20400 1.82897E+013 
20450 1.81435E+013 
20500 1.79984E+013 
20550 1.78543E+013 
20600 1.77114E+013 
20650 1.75694E+013 
20700 1.74286E+013 
20750 1.72888E+013 
20800 1.715E+013 
20850 1.70123E+013 
20900 1.68756E+013 
20950 1.67399E+013 
21000 1.66053E+013 
21050 1.64716E+013 
21100 1.6339E+013 
21150 1.62073E+013 
21200 1.60766E+013 
21250 1.5947E+013 
21300 1.58183E+013 
21350 1.56905E+013 
21400 1.55638E+013 
21450 1.5438E+013 
21500 1.53131E+013 
21550 1.51892E+013 
21600 1.50662E+013 
21650 1.49442E+013 
21700 1.48231E+013 
21750 1.47029E+013 
21800 1.45836E+013 
21850 1.44652E+013 
21900 1.43478E+013 
21950 1.42312E+013 
22000 1.41155E+013 
22050 1.40007E+013 
22100 1.38868E+013 
22150 1.37737E+013 
22200 1.36616E+013 
22250 1.35502E+013 
22300 1.34398E+013 
22350 1.33301E+013 
22400 1.32214E+013 
22450 1.31134E+013 
22500 1.30063E+013 
22550 1.29E+013 
22600 1.27946E+013 
22650 1.26899E+013 
22700 1.25861E+013 
22750 1.2483E+013 
22800 1.23808E+013 
22850 1.22793E+013 
22900 1.21787E+013 
22950 1.20788E+013 
23000 1.19797E+013 
23050 1.18813E+013 
23100 1.17837E+013 
23150 1.16869E+013 
23200 1.15908E+013 
23250 1.14955E+013 
23300 1.14009E+013 
23350 1.13071E+013 
23400 1.1214E+013 
23450 1.11216E+013 
23500 1.103E+013 
23550 1.0939E+013 
23600 1.08488E+013 
23650 1.07593E+013 
23700 1.06705E+013 
23750 1.05823E+013 
23800 1.04949E+013 
23850 1.04082E+013 
23900 1.03221E+013 
23950 1.02367E+013 
24000 1.0152E+013 
24050 1.0068E+013 
24100 9.9846E+012 
24150 9.90188E+012 
24200 9.81981E+012 
24250 9.73839E+012 
24300 9.65761E+012 
24350 9.57747E+012 
24400 9.49796E+012 
24450 9.41909E+012 
24500 9.34084E+012 
24550 9.26321E+012 
24600 9.18619E+012 
24650 9.10979E+012 
24700 9.03399E+012 
24750 8.9588E+012 
24800 8.88421E+012 
24850 8.8102E+012 
24900 8.73679E+012 
24950 8.66397E+012 
25000 8.59172E+012 
25050 8.52005E+012 
25100 8.44895E+012 
25150 8.37842E+012 
25200 8.30845E+012 
25250 8.23905E+012 
25300 8.1702E+012 
25350 8.1019E+012 
25400 8.03414E+012 
25450 7.96693E+012 
25500 7.90026E+012 
25550 7.83413E+012 
25600 7.76852E+012 
25650 7.70344E+012 
25700 7.63889E+012 
25750 7.57485E+012 
25800 7.51134E+012 
25850 7.44833E+012 
25900 7.38583E+012 
25950 7.32383E+012 
26000 7.26233E+012 
26050 7.20133E+012 
26100 7.14082E+012 
26150 7.0808E+012 
26200 7.02127E+012 
26250 6.96222E+012 
26300 6.90364E+012 
26350 6.84554E+012 
26400 6.78791E+012 
26450 6.73074E+012 
26500 6.67405E+012 
26550 6.6178E+012 
26600 6.56202E+012 
26650 6.50669E+012 
26700 6.45181E+012 
26750 6.39737E+012 
26800 6.34338E+012 
26850 6.28983E+012 
26900 6.23671E+012 
26950 6.18403E+012 
27000 6.13177E+012 
27050 6.07994E+012 
27100 6.02853E+012 
27150 5.97754E+012 
27200 5.92697E+012 
27250 5.87681E+012 
27300 5.82707E+012 
27350 5.77772E+012 
27400 5.72879E+012 
27450 5.68025E+012 
27500 5.63211E+012 
27550 5.58436E+012 
27600 5.53701E+012 
27650 5.49004E+012 
27700 5.44346E+012 
27750 5.39726E+012 
27800 5.35144E+012 
27850 5.30599E+012 
27900 5.26092E+012 
27950 5.21622E+012 
28000 5.17189E+012 
28050 5.12792E+012 
28100 5.08431E+012 
28150 5.04106E+012 
28200 4.99817E+012 
28250 4.95564E+012 
28300 4.91345E+012 
28350 4.87161E+012 
28400 4.83011E+012 
28450 4.78896E+012 
28500 4.74815E+012 
28550 4.70767E+012 
28600 4.66754E+012 
28650 4.62773E+012 
28700 4.58825E+012 
28750 4.54909E+012 
28800 4.51027E+012 
28850 4.47176E+012 
28900 4.43357E+012 
28950 4.3957E+012 
29000 4.35814E+012 
29050 4.32089E+012 
29100 4.28396E+012 
29150 4.24733E+012 
29200 4.211E+012 
29250 4.17498E+012 
29300 4.13925E+012 
29350 4.10382E+012 
29400 4.06869E+012 
29450 4.03385E+012 
29500 3.9993E+012 
29550 3.96503E+012 
29600 3.93105E+012 
29650 3.89736E+012 
29700 3.86394E+012 
29750 3.83081E+012 
29800 3.79795E+012 
29850 3.76536E+012 
29900 3.73305E+012 
29950 3.70101E+012 
30000 3.66923E+012 
30050 3.63772E+012 
30100 3.60647E+012 
30150 3.57549E+012 
30200 3.54476E+012 
30250 3.51429E+012 
30300 3.48407E+012 
30350 3.45411E+012 
30400 3.4244E+012 
30450 3.39494E+012 
30500 3.36572E+012 
30550 3.33675E+012 
30600 3.30803E+012 
30650 3.27954E+012 
30700 3.25129E+012 
30750 3.22328E+012 
30800 3.19551E+012 
30850 3.16797E+012 
30900 3.14066E+012 
30950 3.11358E+012 
31000 3.08673E+012 
31050 3.0601E+012 
31100 3.0337E+012 
31150 3.00752E+012 
31200 2.98156E+012 
31250 2.95582E+012 
31300 2.93029E+012 
31350 2.90498E+012 
31400 2.87989E+012 
31450 2.855E+012 
31500 2.83033E+012 
31550 2.80586E+012 
31600 2.7816E+012 
31650 2.75755E+012 
31700 2.7337E+012 
31750 2.71005E+012 
31800 2.6866E+012 
31850 2.66334E+012 
31900 2.64029E+012 
31950 2.61743E+012 
32000 2.59476E+012 
32050 2.57229E+012 
32100 2.55E+012 
32150 2.52791E+012 
32200 2.506E+012 
32250 2.48427E+012 
32300 2.46273E+012 
32350 2.44138E+012 
32400 2.4202E+012 
32450 2.39921E+012 
32500 2.37839E+012 
32550 2.35775E+012 
32600 2.33728E+012 
32650 2.31699E+012 
32700 2.29687E+012 
32750 2.27692E+012 
32800 2.25715E+012 
32850 2.23754E+012 
32900 2.21809E+012 
32950 2.19881E+012 
33000 2.1797E+012 
33050 2.16075E+012 
33100 2.14196E+012 
33150 2.12332E+012 
33200 2.10485E+012 
33250 2.08654E+012 
33300 2.06838E+012 
33350 2.05038E+012 
33400 2.03253E+012 
33450 2.01483E+012 
33500 1.99728E+012 
33550 1.97989E+012 
33600 1.96264E+012 
33650 1.94554E+012 
33700 1.92858E+012 
33750 1.91177E+012 
33800 1.89511E+012 
33850 1.87858E+012 
33900 1.8622E+012 
33950 1.84596E+012 
34000 1.82985E+012 
34050 1.81389E+012 
34100 1.79806E+012 
34150 1.78236E+012 
34200 1.7668E+012 
34250 1.75138E+012 
34300 1.73608E+012 
34350 1.72092E+012 
34400 1.70589E+012 
34450 1.69098E+012 
34500 1.67621E+012 
34550 1.66156E+012 
34600 1.64703E+012 
34650 1.63263E+012 
34700 1.61836E+012 
34750 1.6042E+012 
34800 1.59017E+012 
34850 1.57626E+012 
34900 1.56247E+012 
34950 1.54879E+012 
35000 1.53524E+012 
35050 1.5218E+012 
35100 1.50848E+012 
35150 1.49527E+012 
35200 1.48217E+012 
35250 1.46919E+012 
35300 1.45632E+012 
35350 1.44356E+012 
35400 1.43091E+012 
35450 1.41837E+012 
35500 1.40593E+012 
35550 1.39361E+012 
35600 1.38139E+012 
35650 1.36927E+012 
35700 1.35726E+012 
35750 1.34535E+012 
35800 1.33355E+012 
35850 1.32185E+012 
35900 1.31025E+012 
35950 1.29874E+012 
36000 1.28734E+012 
36050 1.27604E+012 
36100 1.26483E+012 
36150 1.25373E+012 
36200 1.24271E+012 
36250 1.23179E+012 
36300 1.22097E+012 
36350 1.21024E+012 
36400 1.1996E+012 
36450 1.18906E+012 
36500 1.1786E+012 
36550 1.16824E+012 
36600 1.15797E+012 
36650 1.14778E+012 
36700 1.13769E+012 
36750 1.12768E+012 
36800 1.11775E+012 
36850 1.10792E+012 
36900 1.09816E+012 
36950 1.0885E+012 
37000 1.07891E+012 
37050 1.06942E+012 
37100 1.06E+012 
37150 1.05066E+012 
37200 1.04141E+012 
37250 1.03223E+012 
37300 1.02314E+012 
37350 1.01412E+012 
37400 1.00518E+012 
37450 9.96321E+011 
37500 9.87538E+011 
37550 9.78831E+011 
37600 9.70199E+011 
37650 9.61643E+011 
37700 9.5316E+011 
37750 9.44752E+011 
37800 9.36417E+011 
37850 9.28154E+011 
37900 9.19963E+011 
37950 9.11843E+011 
38000 9.03794E+011 
38050 8.95815E+011 
38100 8.87905E+011 
38150 8.80064E+011 
38200 8.72292E+011 
38250 8.64587E+011 
38300 8.56949E+011 
38350 8.49378E+011 
38400 8.41873E+011 
38450 8.34433E+011 
38500 8.27058E+011 
38550 8.19747E+011 
38600 8.125E+011 
38650 8.05316E+011 
38700 7.98195E+011 
38750 7.91136E+011 
38800 7.84139E+011 
38850 7.77202E+011 
38900 7.70326E+011 
38950 7.6351E+011 
39000 7.56754E+011 
39050 7.50057E+011 
39100 7.43418E+011 
39150 7.36837E+011 
39200 7.30314E+011 
39250 7.23847E+011 
39300 7.17437E+011 
39350 7.11083E+011 
39400 7.04785E+011 
39450 6.98542E+011 
39500 6.92353E+011 
39550 6.86218E+011 
39600 6.80138E+011 
39650 6.7411E+011 
39700 6.68135E+011 
39750 6.62212E+011 
39800 6.56341E+011 
39850 6.50522E+011 
39900 6.44753E+011 
39950 6.39035E+011 
40000 6.33367E+011 
40050 6.27749E+011 
40100 6.2218E+011 
40150 6.1666E+011 
40200 6.11188E+011 
40250 6.05764E+011 
40300 6.00388E+011 
40350 5.95059E+011 
40400 5.89776E+011 
40450 5.8454E+011 
40500 5.7935E+011 
40550 5.74205E+011 
40600 5.69106E+011 
40650 5.64051E+011 
40700 5.5904E+011 
40750 5.54074E+011 
40800 5.49151E+011 
40850 5.44271E+011 
40900 5.39435E+011 
40950 5.3464E+011 
41000 5.29888E+011 
41050 5.25178E+011 
41100 5.20509E+011 
41150 5.15881E+011 
41200 5.11293E+011 
41250 5.06746E+011 
41300 5.02239E+011 
41350 4.97772E+011 
41400 4.93344E+011 
41450 4.88955E+011 
41500 4.84604E+011 
41550 4.80292E+011 
41600 4.76017E+011 
41650 4.71781E+011 
41700 4.67581E+011 
41750 4.63419E+011 
41800 4.59293E+011 
41850 4.55203E+011 
41900 4.5115E+011 
41950 4.47132E+011 
42000 4.4315E+011 
42050 4.39203E+011 
42100 4.3529E+011 
42150 4.31412E+011 
42200 4.27568E+011 
42250 4.23758E+011 
42300 4.19982E+011 
42350 4.16239E+011 
42400 4.12529E+011 
42450 4.08851E+011 
42500 4.05206E+011 
42550 4.01594E+011 
42600 3.98013E+011 
42650 3.94463E+011 
42700 3.90946E+011 
42750 3.87458E+011 
42800 3.84002E+011 
42850 3.80577E+011 
42900 3.77181E+011 
42950 3.73816E+011 
43000 3.7048E+011 
43050 3.67174E+011 
43100 3.63897E+011 
43150 3.60649E+011 
43200 3.5743E+011 
43250 3.54239E+011 
43300 3.51076E+011 
43350 3.47941E+011 
43400 3.44834E+011 
43450 3.41755E+011 
43500 3.38702E+011 
43550 3.35677E+011 
43600 3.32678E+011 
43650 3.29706E+011 
43700 3.26761E+011 
43750 3.23841E+011 
43800 3.20947E+011 
43850 3.18079E+011 
43900 3.15236E+011 
43950 3.12418E+011 
44000 3.09626E+011 
44050 3.06858E+011 
44100 3.04114E+011 
44150 3.01395E+011 
44200 2.987E+011 
44250 2.96029E+011 
44300 2.93381E+011 
44350 2.90757E+011 
44400 2.88156E+011 
44450 2.85578E+011 
44500 2.83023E+011 
44550 2.80491E+011 
44600 2.77981E+011 
44650 2.75493E+011 
44700 2.73028E+011 
44750 2.70584E+011 
44800 2.68162E+011 
44850 2.65761E+011 
44900 2.63382E+011 
44950 2.61024E+011 
45000 2.58687E+011 
45050 2.5637E+011 
45100 2.54074E+011 
45150 2.51799E+011 
45200 2.49544E+011 
45250 2.47308E+011 
45300 2.45093E+011 
45350 2.42897E+011 
45400 2.40721E+011 
45450 2.38564E+011 
45500 2.36426E+011 
45550 2.34307E+011 
45600 2.32207E+011 
45650 2.30126E+011 
45700 2.28063E+011 
45750 2.26018E+011 
45800 2.23992E+011 
45850 2.21984E+011 
45900 2.19993E+011 
45950 2.18021E+011 
46000 2.16066E+011 
46050 2.14128E+011 
46100 2.12207E+011 
46150 2.10304E+011 
46200 2.08417E+011 
46250 2.06547E+011 
46300 2.04694E+011 
46350 2.02857E+011 
46400 2.01037E+011 
46450 1.99233E+011 
46500 1.97445E+011 
46550 1.95673E+011 
46600 1.93916E+011 
46650 1.92176E+011 
46700 1.9045E+011 
46750 1.88741E+011 
46800 1.87046E+011 
46850 1.85366E+011 
46900 1.83702E+011 
46950 1.82052E+011 
47000 1.80417E+011 
47050 1.78796E+011 
47100 1.77191E+011 
47150 1.75599E+011 
47200 1.74021E+011 
47250 1.72458E+011 
47300 1.70908E+011 
47350 1.69372E+011 
47400 1.6785E+011 
47450 1.66342E+011 
47500 1.64847E+011 
47550 1.63365E+011 
47600 1.61897E+011 
47650 1.60441E+011 
47700 1.58999E+011 
47750 1.5757E+011 
47800 1.56153E+011 
47850 1.54749E+011 
