#F U:\Beamline I20\!M2 and filters heat load\xop\Be-0p3mm.dat
#C Be - 0.3mm - normalized
#S 1 File written by xplot on Fri Mar 06 14:44:27 2009
#N 2
#L    Photon Energy [eV]  Intens after oe #1
50 0 
100 0 
150 0 
200 0 
250 2.10195E-044 
300 1.88895E-042 
350 1.66038E-040 
400 1.45916E-038 
450 1.28233E-036 
500 1.12692E-034 
550 9.90345E-033 
600 8.70326E-031 
650 7.64852E-029 
700 6.72158E-027 
750 5.90698E-025 
800 5.1911E-023 
850 4.562E-021 
900 4.00912E-019 
950 3.52327E-017 
1000 3.09627E-015 
1050 2.50809E-013 
1100 1.08243E-011 
1150 2.45588E-010 
1200 3.42765E-009 
1250 3.21267E-008 
1300 2.17046E-007 
1350 1.11982E-006 
1400 4.6229E-006 
1450 1.58607E-005 
1500 4.66429E-005 
1550 0.000119206 
1600 0.000273068 
1650 0.000569884 
1700 0.0010874 
1750 0.00194402 
1800 0.00324397 
1850 0.00515184 
1900 0.00778603 
1950 0.0112878 
2000 0.0158117 
2050 0.0214108 
2100 0.0281616 
2150 0.0361532 
2200 0.0454084 
2250 0.0559198 
2300 0.067558 
2350 0.0803169 
2400 0.0941491 
2450 0.108962 
2500 0.124654 
2550 0.141119 
2600 0.158245 
2650 0.175926 
2700 0.194057 
2750 0.21254 
2800 0.231281 
2850 0.250198 
2900 0.269213 
2950 0.288183 
3000 0.306972 
3050 0.325656 
3100 0.344193 
3150 0.362546 
3200 0.380683 
3250 0.398508 
3300 0.41579 
3350 0.432788 
3400 0.449497 
3450 0.465914 
3500 0.481669 
3550 0.497057 
3600 0.51215 
3650 0.526873 
3700 0.540914 
3750 0.554685 
3800 0.568191 
3850 0.580992 
3900 0.593508 
3950 0.605791 
4000 0.617395 
4050 0.628756 
4100 0.639858 
4150 0.650342 
4200 0.660664 
4250 0.670582 
4300 0.680111 
4350 0.689514 
4400 0.698317 
4450 0.707011 
4500 0.715334 
4550 0.723371 
4600 0.731224 
4650 0.738656 
4700 0.746042 
4750 0.752929 
4800 0.759783 
4850 0.76625 
4900 0.772617 
4950 0.778682 
5000 0.784606 
5050 0.790284 
5100 0.795805 
5150 0.801116 
5200 0.806271 
5250 0.811233 
5300 0.816055 
5350 0.820686 
5400 0.825207 
5450 0.829525 
5500 0.833775 
5550 0.837797 
5600 0.8418 
5650 0.845545 
5700 0.849306 
5750 0.852808 
5800 0.856306 
5850 0.859625 
5900 0.862876 
5950 0.866029 
6000 0.869049 
6050 0.872053 
6100 0.874856 
6150 0.877668 
6200 0.880325 
6250 0.882935 
6300 0.885483 
6350 0.887903 
6400 0.89033 
6450 0.892596 
6500 0.894846 
6550 0.897035 
6600 0.899119 
6650 0.901208 
6700 0.903168 
6750 0.905103 
6800 0.907009 
6850 0.908801 
6900 0.910596 
6950 0.912316 
7000 0.913978 
7050 0.915642 
7100 0.917199 
7150 0.91874 
7200 0.920271 
7250 0.921696 
7300 0.923124 
7350 0.924522 
7400 0.925842 
7450 0.927165 
7500 0.928446 
7550 0.929669 
7600 0.930894 
7650 0.932073 
7700 0.933205 
7750 0.934338 
7800 0.935428 
7850 0.936476 
7900 0.937525 
7950 0.938537 
8000 0.939507 
8050 0.940477 
8100 0.941421 
8150 0.942318 
8200 0.943216 
8250 0.9441 
8300 0.94493 
8350 0.94576 
8400 0.946591 
8450 0.94736 
8500 0.948128 
8550 0.948896 
8600 0.949623 
8650 0.950334 
8700 0.951044 
8750 0.951736 
8800 0.952393 
8850 0.953049 
8900 0.953707 
8950 0.954317 
9000 0.954924 
9050 0.955532 
9100 0.956119 
9150 0.95668 
9200 0.957242 
9250 0.957804 
9300 0.958327 
9350 0.958846 
9400 0.959366 
9450 0.959874 
9500 0.960354 
9550 0.960834 
9600 0.961314 
9650 0.961773 
9700 0.962216 
9750 0.96266 
9800 0.963104 
9850 0.96352 
9900 0.96393 
9950 0.964341 
10000 0.964751 
10050 0.965131 
10100 0.96551 
10150 0.96589 
10200 0.966267 
10250 0.966617 
10300 0.966968 
10350 0.967318 
10400 0.967667 
10450 0.967991 
10500 0.968315 
10550 0.968639 
10600 0.968963 
10650 0.969263 
10700 0.969562 
10750 0.969862 
10800 0.970162 
10850 0.970441 
10900 0.970718 
10950 0.970996 
11000 0.971273 
11050 0.971536 
11100 0.971792 
11150 0.972048 
11200 0.972304 
11250 0.972553 
11300 0.97279 
11350 0.973027 
11400 0.973264 
11450 0.973501 
11500 0.97372 
11550 0.973939 
11600 0.974158 
11650 0.974377 
11700 0.974588 
11750 0.97479 
11800 0.974993 
11850 0.975195 
11900 0.975397 
11950 0.975586 
12000 0.975773 
12050 0.97596 
12100 0.976147 
12150 0.97633 
12200 0.976503 
12250 0.976676 
12300 0.976849 
12350 0.977022 
12400 0.977188 
12450 0.977348 
12500 0.977508 
12550 0.977668 
12600 0.977828 
12650 0.97798 
12700 0.978128 
12750 0.978276 
12800 0.978424 
12850 0.978572 
12900 0.978711 
12950 0.978848 
13000 0.978985 
13050 0.979122 
13100 0.979258 
13150 0.979388 
13200 0.979514 
13250 0.979641 
13300 0.979767 
13350 0.979894 
13400 0.980015 
13450 0.980132 
13500 0.980249 
13550 0.980366 
13600 0.980483 
13650 0.980597 
13700 0.980705 
13750 0.980813 
13800 0.980921 
13850 0.98103 
13900 0.981138 
13950 0.981238 
14000 0.981338 
14050 0.981438 
14100 0.981538 
14150 0.981638 
14200 0.981734 
14250 0.981827 
14300 0.981919 
14350 0.982012 
14400 0.982105 
14450 0.982197 
14500 0.982283 
14550 0.982368 
14600 0.982454 
14650 0.98254 
14700 0.982626 
14750 0.982709 
14800 0.982788 
14850 0.982868 
14900 0.982947 
14950 0.983027 
15000 0.983106 
15050 0.983181 
15100 0.983255 
15150 0.983328 
15200 0.983402 
15250 0.983475 
15300 0.983549 
15350 0.983618 
15400 0.983686 
15450 0.983754 
15500 0.983822 
15550 0.98389 
15600 0.983959 
15650 0.984023 
15700 0.984086 
15750 0.984149 
15800 0.984212 
15850 0.984275 
15900 0.984338 
15950 0.984398 
16000 0.984456 
16050 0.984514 
16100 0.984573 
16150 0.984631 
16200 0.98469 
16250 0.984746 
16300 0.9848 
16350 0.984854 
16400 0.984908 
16450 0.984963 
16500 0.985017 
16550 0.98507 
16600 0.985121 
16650 0.985171 
16700 0.985221 
16750 0.985271 
16800 0.985321 
16850 0.985371 
16900 0.985419 
16950 0.985466 
17000 0.985512 
17050 0.985559 
17100 0.985605 
17150 0.985651 
17200 0.985698 
17250 0.985741 
17300 0.985784 
17350 0.985827 
17400 0.98587 
17450 0.985913 
17500 0.985956 
17550 0.985999 
17600 0.986039 
17650 0.986079 
17700 0.986118 
17750 0.986158 
17800 0.986198 
17850 0.986238 
17900 0.986277 
17950 0.986314 
18000 0.986351 
18050 0.986388 
18100 0.986425 
18150 0.986463 
18200 0.9865 
18250 0.986535 
18300 0.98657 
18350 0.986604 
18400 0.986639 
18450 0.986673 
18500 0.986708 
18550 0.986742 
18600 0.986776 
18650 0.986808 
18700 0.98684 
18750 0.986871 
18800 0.986903 
18850 0.986935 
18900 0.986967 
18950 0.986999 
19000 0.987029 
19050 0.987059 
19100 0.987088 
19150 0.987118 
19200 0.987148 
19250 0.987177 
19300 0.987207 
19350 0.987235 
19400 0.987263 
19450 0.98729 
19500 0.987318 
19550 0.987346 
19600 0.987373 
19650 0.987401 
19700 0.987428 
19750 0.987454 
19800 0.987479 
19850 0.987505 
19900 0.987531 
19950 0.987556 
20000 0.987582 
20050 0.987607 
20100 0.987632 
20150 0.987656 
20200 0.98768 
20250 0.987704 
20300 0.987728 
20350 0.987751 
20400 0.987775 
20450 0.987799 
20500 0.987822 
20550 0.987844 
20600 0.987866 
20650 0.987889 
20700 0.987911 
20750 0.987933 
20800 0.987955 
20850 0.987977 
20900 0.987999 
20950 0.988019 
21000 0.98804 
21050 0.98806 
21100 0.988081 
21150 0.988102 
21200 0.988122 
21250 0.988143 
21300 0.988163 
21350 0.988182 
21400 0.988201 
21450 0.988221 
21500 0.98824 
21550 0.988259 
21600 0.988278 
21650 0.988298 
21700 0.988317 
21750 0.988335 
21800 0.988352 
21850 0.98837 
21900 0.988388 
21950 0.988406 
22000 0.988424 
22050 0.988442 
22100 0.98846 
22150 0.988477 
22200 0.988494 
22250 0.98851 
22300 0.988527 
22350 0.988544 
22400 0.98856 
22450 0.988577 
22500 0.988594 
22550 0.98861 
22600 0.988626 
22650 0.988642 
22700 0.988657 
22750 0.988673 
22800 0.988688 
22850 0.988704 
22900 0.988719 
22950 0.988735 
23000 0.98875 
23050 0.988765 
23100 0.988779 
23150 0.988794 
23200 0.988808 
23250 0.988823 
23300 0.988837 
23350 0.988852 
23400 0.988866 
23450 0.988881 
23500 0.988894 
23550 0.988908 
23600 0.988921 
23650 0.988935 
23700 0.988949 
23750 0.988962 
23800 0.988976 
23850 0.988989 
23900 0.989003 
23950 0.989015 
24000 0.989028 
24050 0.989041 
24100 0.989053 
24150 0.989066 
24200 0.989079 
24250 0.989091 
24300 0.989104 
24350 0.989117 
24400 0.989129 
24450 0.989141 
24500 0.989153 
24550 0.989164 
24600 0.989176 
24650 0.989188 
24700 0.9892 
24750 0.989212 
24800 0.989224 
24850 0.989235 
24900 0.989246 
24950 0.989258 
25000 0.989269 
25050 0.98928 
25100 0.989291 
25150 0.989302 
25200 0.989313 
25250 0.989324 
25300 0.989335 
25350 0.989346 
25400 0.989356 
25450 0.989367 
25500 0.989377 
25550 0.989387 
25600 0.989398 
25650 0.989408 
25700 0.989418 
25750 0.989429 
25800 0.989439 
25850 0.989449 
25900 0.989459 
25950 0.989469 
26000 0.989478 
26050 0.989488 
26100 0.989498 
26150 0.989507 
26200 0.989517 
26250 0.989527 
26300 0.989537 
26350 0.989546 
26400 0.989555 
26450 0.989564 
26500 0.989573 
26550 0.989583 
26600 0.989592 
26650 0.989601 
26700 0.98961 
26750 0.989619 
26800 0.989628 
26850 0.989637 
26900 0.989646 
26950 0.989654 
27000 0.989663 
27050 0.989671 
27100 0.98968 
27150 0.989688 
27200 0.989697 
27250 0.989706 
27300 0.989714 
27350 0.989723 
27400 0.989731 
27450 0.989739 
27500 0.989747 
27550 0.989755 
27600 0.989763 
27650 0.989771 
27700 0.989779 
27750 0.989787 
27800 0.989795 
27850 0.989803 
27900 0.989811 
27950 0.989819 
28000 0.989826 
28050 0.989834 
28100 0.989841 
28150 0.989849 
28200 0.989856 
28250 0.989864 
28300 0.989871 
28350 0.989879 
28400 0.989887 
28450 0.989894 
28500 0.989901 
28550 0.989908 
28600 0.989915 
28650 0.989922 
28700 0.989929 
28750 0.989937 
28800 0.989944 
28850 0.989951 
28900 0.989958 
28950 0.989965 
29000 0.989972 
29050 0.989979 
29100 0.989985 
29150 0.989992 
29200 0.989999 
29250 0.990005 
29300 0.990012 
29350 0.990019 
29400 0.990026 
29450 0.990032 
29500 0.990039 
29550 0.990046 
29600 0.990052 
29650 0.990058 
29700 0.990065 
29750 0.990071 
29800 0.990077 
29850 0.990083 
29900 0.99009 
29950 0.990096 
30000 0.990102 
30050 0.990109 
30100 0.990115 
30150 0.990121 
30200 0.990127 
30250 0.990133 
30300 0.990139 
30350 0.990145 
30400 0.990151 
30450 0.990157 
30500 0.990163 
30550 0.990169 
30600 0.990175 
30650 0.99018 
30700 0.990186 
30750 0.990192 
30800 0.990198 
30850 0.990203 
30900 0.990209 
30950 0.990215 
31000 0.99022 
31050 0.990226 
31100 0.990232 
31150 0.990237 
31200 0.990243 
31250 0.990248 
31300 0.990254 
31350 0.990259 
31400 0.990265 
31450 0.99027 
31500 0.990275 
31550 0.990281 
31600 0.990286 
31650 0.990291 
31700 0.990296 
31750 0.990302 
31800 0.990307 
31850 0.990312 
31900 0.990318 
31950 0.990323 
32000 0.990328 
32050 0.990333 
32100 0.990338 
32150 0.990343 
32200 0.990348 
32250 0.990353 
32300 0.990358 
32350 0.990363 
32400 0.990368 
32450 0.990373 
32500 0.990378 
32550 0.990383 
32600 0.990388 
32650 0.990393 
32700 0.990397 
32750 0.990402 
32800 0.990407 
32850 0.990412 
32900 0.990416 
32950 0.990421 
33000 0.990426 
33050 0.990431 
33100 0.990435 
33150 0.99044 
33200 0.990445 
33250 0.990449 
33300 0.990454 
33350 0.990458 
33400 0.990463 
33450 0.990467 
33500 0.990472 
33550 0.990476 
33600 0.990481 
33650 0.990485 
33700 0.99049 
33750 0.990494 
33800 0.990499 
33850 0.990503 
33900 0.990508 
33950 0.990512 
34000 0.990516 
34050 0.99052 
34100 0.990525 
34150 0.990529 
34200 0.990533 
34250 0.990538 
34300 0.990542 
34350 0.990546 
34400 0.99055 
34450 0.990555 
34500 0.990559 
34550 0.990563 
34600 0.990567 
34650 0.990571 
34700 0.990575 
34750 0.990579 
34800 0.990583 
34850 0.990587 
34900 0.990591 
34950 0.990595 
35000 0.9906 
35050 0.990604 
35100 0.990608 
35150 0.990612 
35200 0.990616 
35250 0.99062 
35300 0.990623 
35350 0.990627 
35400 0.990631 
35450 0.990635 
35500 0.990639 
35550 0.990643 
35600 0.990647 
35650 0.99065 
35700 0.990654 
35750 0.990658 
35800 0.990662 
35850 0.990666 
35900 0.99067 
35950 0.990673 
36000 0.990677 
36050 0.990681 
36100 0.990684 
36150 0.990688 
36200 0.990692 
36250 0.990695 
36300 0.990699 
36350 0.990703 
36400 0.990707 
36450 0.99071 
36500 0.990714 
36550 0.990718 
36600 0.990721 
36650 0.990725 
36700 0.990728 
36750 0.990732 
36800 0.990735 
36850 0.990739 
36900 0.990742 
36950 0.990746 
37000 0.990749 
37050 0.990753 
37100 0.990756 
37150 0.99076 
37200 0.990763 
37250 0.990767 
37300 0.99077 
37350 0.990774 
37400 0.990777 
37450 0.99078 
37500 0.990784 
37550 0.990787 
37600 0.99079 
37650 0.990794 
37700 0.990797 
37750 0.9908 
37800 0.990804 
37850 0.990807 
37900 0.990811 
37950 0.990814 
38000 0.990817 
38050 0.990821 
38100 0.990824 
38150 0.990827 
38200 0.99083 
38250 0.990833 
38300 0.990837 
38350 0.99084 
38400 0.990843 
38450 0.990846 
38500 0.990849 
38550 0.990853 
38600 0.990856 
38650 0.990859 
38700 0.990862 
38750 0.990865 
38800 0.990869 
38850 0.990872 
38900 0.990875 
38950 0.990878 
39000 0.990881 
39050 0.990884 
39100 0.990887 
39150 0.99089 
39200 0.990893 
39250 0.990896 
39300 0.990899 
39350 0.990902 
39400 0.990905 
39450 0.990908 
39500 0.990911 
39550 0.990915 
39600 0.990917 
39650 0.99092 
39700 0.990923 
39750 0.990926 
39800 0.990929 
39850 0.990932 
39900 0.990935 
39950 0.990938 
40000 0.990941 
40050 0.990944 
40100 0.990947 
40150 0.99095 
40200 0.990953 
40250 0.990956 
40300 0.990959 
40350 0.990961 
40400 0.990964 
40450 0.990967 
40500 0.99097 
40550 0.990973 
40600 0.990976 
40650 0.990978 
40700 0.990981 
40750 0.990984 
40800 0.990987 
40850 0.99099 
40900 0.990992 
40950 0.990995 
41000 0.990998 
41050 0.991001 
41100 0.991004 
41150 0.991006 
41200 0.991009 
41250 0.991012 
41300 0.991015 
41350 0.991017 
41400 0.99102 
41450 0.991023 
41500 0.991025 
41550 0.991028 
41600 0.991031 
41650 0.991034 
41700 0.991036 
41750 0.991039 
41800 0.991042 
41850 0.991044 
41900 0.991047 
41950 0.99105 
42000 0.991052 
42050 0.991055 
42100 0.991058 
42150 0.99106 
42200 0.991063 
42250 0.991065 
42300 0.991068 
42350 0.991071 
42400 0.991073 
42450 0.991076 
42500 0.991078 
42550 0.991081 
42600 0.991084 
42650 0.991086 
42700 0.991089 
42750 0.991091 
42800 0.991094 
42850 0.991096 
42900 0.991099 
42950 0.991101 
43000 0.991104 
43050 0.991106 
43100 0.991109 
43150 0.991111 
43200 0.991114 
43250 0.991116 
43300 0.991119 
43350 0.991121 
43400 0.991124 
43450 0.991126 
43500 0.991129 
43550 0.991131 
43600 0.991134 
43650 0.991136 
43700 0.991139 
43750 0.991141 
43800 0.991144 
43850 0.991146 
43900 0.991148 
43950 0.991151 
44000 0.991153 
44050 0.991156 
44100 0.991158 
44150 0.99116 
44200 0.991163 
44250 0.991165 
44300 0.991168 
44350 0.99117 
44400 0.991173 
44450 0.991175 
44500 0.991177 
44550 0.99118 
44600 0.991182 
44650 0.991184 
44700 0.991186 
44750 0.991189 
44800 0.991191 
44850 0.991194 
44900 0.991196 
44950 0.991198 
45000 0.991201 
45050 0.991203 
45100 0.991205 
45150 0.991207 
45200 0.99121 
45250 0.991212 
45300 0.991214 
45350 0.991217 
45400 0.991219 
45450 0.991221 
45500 0.991223 
45550 0.991226 
45600 0.991228 
45650 0.99123 
45700 0.991232 
45750 0.991235 
45800 0.991237 
45850 0.991239 
45900 0.991241 
45950 0.991244 
46000 0.991246 
46050 0.991248 
46100 0.99125 
46150 0.991253 
46200 0.991255 
46250 0.991257 
46300 0.991259 
46350 0.991261 
46400 0.991264 
46450 0.991266 
46500 0.991268 
46550 0.99127 
46600 0.991272 
46650 0.991274 
46700 0.991277 
46750 0.991279 
46800 0.991281 
46850 0.991283 
46900 0.991285 
46950 0.991287 
47000 0.99129 
47050 0.991292 
47100 0.991294 
47150 0.991296 
47200 0.991298 
47250 0.9913 
47300 0.991302 
47350 0.991304 
47400 0.991306 
47450 0.991309 
47500 0.991311 
47550 0.991313 
47600 0.991315 
47650 0.991317 
47700 0.991319 
47750 0.991321 
47800 0.991323 
47850 0.991325 
47900 0.991327 
47950 0.99133 
48000 0.991332 
48050 0.991334 
48100 0.991336 
48150 0.991338 
48200 0.99134 
48250 0.991342 
48300 0.991344 
48350 0.991346 
48400 0.991348 
48450 0.99135 
48500 0.991352 
48550 0.991354 
48600 0.991356 
48650 0.991358 
48700 0.99136 
48750 0.991362 
48800 0.991364 
48850 0.991366 
48900 0.991368 
48950 0.99137 
49000 0.991372 
49050 0.991374 
49100 0.991376 
49150 0.991378 
49200 0.99138 
49250 0.991382 
49300 0.991384 
49350 0.991386 
49400 0.991388 
49450 0.99139 
49500 0.991392 
49550 0.991394 
49600 0.991396 
49650 0.991398 
49700 0.9914 
49750 0.991402 
49800 0.991404 
49850 0.991406 
49900 0.991408 
49950 0.99141 
50000 0.991411 
50050 0.991413 
50100 0.991415 
50150 0.991417 
50200 0.991419 
50250 0.991421 
50300 0.991423 
50350 0.991425 
50400 0.991427 
50450 0.991429 
50500 0.99143 
50550 0.991432 
50600 0.991434 
50650 0.991436 
50700 0.991438 
50750 0.99144 
50800 0.991442 
50850 0.991444 
50900 0.991446 
50950 0.991448 
51000 0.991449 
51050 0.991451 
51100 0.991453 
51150 0.991455 
51200 0.991457 
51250 0.991459 
51300 0.991461 
51350 0.991462 
51400 0.991464 
51450 0.991466 
51500 0.991468 
51550 0.99147 
51600 0.991472 
51650 0.991473 
51700 0.991475 
51750 0.991477 
51800 0.991479 
51850 0.991481 
51900 0.991483 
51950 0.991484 
52000 0.991486 
52050 0.991488 
52100 0.99149 
52150 0.991492 
52200 0.991493 
52250 0.991495 
52300 0.991497 
52350 0.991499 
52400 0.991501 
52450 0.991502 
52500 0.991504 
52550 0.991506 
52600 0.991508 
52650 0.99151 
52700 0.991511 
52750 0.991513 
52800 0.991515 
52850 0.991517 
52900 0.991519 
52950 0.99152 
53000 0.991522 
53050 0.991524 
53100 0.991526 
53150 0.991527 
53200 0.991529 
53250 0.991531 
53300 0.991533 
53350 0.991534 
53400 0.991536 
53450 0.991538 
53500 0.991539 
53550 0.991541 
53600 0.991543 
53650 0.991545 
53700 0.991546 
53750 0.991548 
53800 0.99155 
53850 0.991552 
53900 0.991553 
53950 0.991555 
54000 0.991557 
54050 0.991559 
54100 0.99156 
54150 0.991562 
54200 0.991564 
54250 0.991565 
54300 0.991567 
54350 0.991569 
54400 0.99157 
54450 0.991572 
54500 0.991574 
54550 0.991576 
54600 0.991577 
54650 0.991579 
54700 0.991581 
54750 0.991582 
54800 0.991584 
54850 0.991586 
54900 0.991587 
54950 0.991589 
55000 0.991591 
55050 0.991592 
55100 0.991594 
55150 0.991596 
55200 0.991597 
55250 0.991599 
55300 0.991601 
55350 0.991602 
55400 0.991604 
55450 0.991606 
55500 0.991607 
55550 0.991609 
55600 0.991611 
55650 0.991612 
55700 0.991614 
55750 0.991616 
55800 0.991617 
55850 0.991619 
55900 0.99162 
55950 0.991622 
56000 0.991624 
56050 0.991625 
56100 0.991627 
56150 0.991629 
56200 0.99163 
56250 0.991632 
56300 0.991633 
56350 0.991635 
56400 0.991637 
56450 0.991638 
56500 0.99164 
56550 0.991642 
56600 0.991643 
56650 0.991645 
56700 0.991646 
56750 0.991648 
56800 0.99165 
56850 0.991651 
56900 0.991653 
56950 0.991654 
57000 0.991656 
57050 0.991658 
57100 0.991659 
57150 0.991661 
57200 0.991662 
57250 0.991664 
57300 0.991666 
57350 0.991667 
57400 0.991669 
57450 0.99167 
57500 0.991672 
57550 0.991673 
57600 0.991675 
57650 0.991677 
57700 0.991678 
57750 0.99168 
57800 0.991681 
57850 0.991683 
57900 0.991684 
57950 0.991686 
58000 0.991687 
58050 0.991689 
58100 0.991691 
58150 0.991692 
58200 0.991694 
58250 0.991695 
58300 0.991697 
58350 0.991698 
58400 0.9917 
58450 0.991701 
58500 0.991703 
58550 0.991704 
58600 0.991706 
58650 0.991708 
58700 0.991709 
58750 0.991711 
58800 0.991712 
58850 0.991714 
58900 0.991715 
