#F U:\Beamline I20\!M2 and filters heat load\xop\C-pyro-0p2mm.dat
#C pyro C - 0.2mm - normalized
#S 1 File written by xplot on Fri Mar 06 14:40:46 2009
#N 2
#L    Photon Energy [eV]  Intens after oe #1
50 0 
100 0 
150 0 
200 0 
250 0 
300 0 
350 0 
400 0 
450 0 
500 0 
550 0 
600 0 
650 0 
700 0 
750 0 
800 0 
850 0 
900 0 
950 0 
1000 5.60519E-044 
1050 1.41881E-038 
1100 6.4948E-034 
1150 5.11254E-030 
1200 1.05386E-026 
1250 7.19231E-024 
1300 1.9662E-021 
1350 2.51675E-019 
1400 1.71393E-017 
1450 6.88611E-016 
1500 1.77833E-014 
1550 3.06299E-013 
1600 3.83668E-012 
1650 3.65919E-011 
1700 2.6796E-010 
1750 1.61778E-009 
1800 7.9519E-009 
1850 3.36954E-008 
1900 1.2297E-007 
1950 3.9569E-007 
2000 1.14681E-006 
2050 2.99716E-006 
2100 7.16447E-006 
2150 1.5895E-005 
2200 3.29622E-005 
2250 6.4309E-005 
2300 0.000118221 
2350 0.000206705 
2400 0.000345848 
2450 0.000555922 
2500 0.000861669 
2550 0.00129214 
2600 0.00188022 
2650 0.00266221 
2700 0.00367677 
2750 0.00496418 
2800 0.00656521 
2850 0.00852046 
2900 0.0108689 
2950 0.0136368 
3000 0.0168394 
3050 0.0205217 
3100 0.0247092 
3150 0.0294233 
3200 0.034682 
3250 0.0404747 
3300 0.0467266 
3350 0.0535254 
3400 0.0608753 
3450 0.0687777 
3500 0.0770414 
3550 0.0857834 
3600 0.0950334 
3650 0.104733 
3700 0.114646 
3750 0.125012 
3800 0.135824 
3850 0.146699 
3900 0.157933 
3950 0.169556 
4000 0.181114 
4050 0.19298 
4100 0.205118 
4150 0.217097 
4200 0.229387 
4250 0.241679 
4300 0.253946 
4350 0.266492 
4400 0.278665 
4450 0.291081 
4500 0.303357 
4550 0.315577 
4600 0.327867 
4650 0.339836 
4700 0.352043 
4750 0.363734 
4800 0.37565 
4850 0.387171 
4900 0.398768 
4950 0.410064 
5000 0.421329 
5050 0.43235 
5100 0.443274 
5150 0.453983 
5200 0.464566 
5250 0.474934 
5300 0.485179 
5350 0.495178 
5400 0.505094 
5450 0.514709 
5500 0.524306 
5550 0.533524 
5600 0.542816 
5650 0.551631 
5700 0.56059 
5750 0.569043 
5800 0.577577 
5850 0.585773 
5900 0.593886 
5950 0.601842 
6000 0.609543 
6050 0.617275 
6100 0.624568 
6150 0.631947 
6200 0.638987 
6250 0.645961 
6300 0.652827 
6350 0.659407 
6400 0.666053 
6450 0.672313 
6500 0.678571 
6550 0.684705 
6600 0.69059 
6650 0.696527 
6700 0.702137 
6750 0.70771 
6800 0.713234 
6850 0.718463 
6900 0.72373 
6950 0.728807 
7000 0.733741 
7050 0.738709 
7100 0.743381 
7150 0.748029 
7200 0.75267 
7250 0.757015 
7300 0.761385 
7350 0.765684 
7400 0.769766 
7450 0.773869 
7500 0.777863 
7550 0.781691 
7600 0.785539 
7650 0.789259 
7700 0.792846 
7750 0.796449 
7800 0.799927 
7850 0.803284 
7900 0.806655 
7950 0.809918 
8000 0.813055 
8050 0.816205 
8100 0.819277 
8150 0.822208 
8200 0.825148 
8250 0.828053 
8300 0.830787 
8350 0.83353 
8400 0.836283 
8450 0.838834 
8500 0.841391 
8550 0.843956 
8600 0.84639 
8650 0.848772 
8700 0.85116 
8750 0.85349 
8800 0.855707 
8850 0.85793 
8900 0.860159 
8950 0.862232 
9000 0.864299 
9050 0.866372 
9100 0.868376 
9150 0.870298 
9200 0.872224 
9250 0.874154 
9300 0.875954 
9350 0.877743 
9400 0.879536 
9450 0.881293 
9500 0.882955 
9550 0.88462 
9600 0.886287 
9650 0.887881 
9700 0.889427 
9750 0.890974 
9800 0.892525 
9850 0.893978 
9900 0.895414 
9950 0.896852 
10000 0.898292 
10050 0.899624 
10100 0.900958 
10150 0.902293 
10200 0.903621 
10250 0.904857 
10300 0.906095 
10350 0.907334 
10400 0.908565 
10450 0.909713 
10500 0.910862 
10550 0.912012 
10600 0.91316 
10650 0.914225 
10700 0.91529 
10750 0.916357 
10800 0.917425 
10850 0.91842 
10900 0.919408 
10950 0.920396 
11000 0.921386 
11050 0.922326 
11100 0.923242 
11150 0.924158 
11200 0.925076 
11250 0.925969 
11300 0.926817 
11350 0.927667 
11400 0.928517 
11450 0.929367 
11500 0.930156 
11550 0.930942 
11600 0.93173 
11650 0.932518 
11700 0.933277 
11750 0.934005 
11800 0.934734 
11850 0.935464 
11900 0.936194 
11950 0.936873 
12000 0.937548 
12050 0.938223 
12100 0.938899 
12150 0.939562 
12200 0.940187 
12250 0.940812 
12300 0.941438 
12350 0.942064 
12400 0.942666 
12450 0.943245 
12500 0.943824 
12550 0.944404 
12600 0.944984 
12650 0.945533 
12700 0.946069 
12750 0.946606 
12800 0.947142 
12850 0.947679 
12900 0.948185 
12950 0.948681 
13000 0.949178 
13050 0.949674 
13100 0.950171 
13150 0.950641 
13200 0.9511 
13250 0.95156 
13300 0.95202 
13350 0.95248 
13400 0.952919 
13450 0.953344 
13500 0.95377 
13550 0.954195 
13600 0.954621 
13650 0.955035 
13700 0.955428 
13750 0.955822 
13800 0.956215 
13850 0.956609 
13900 0.957002 
13950 0.957366 
14000 0.95773 
14050 0.958094 
14100 0.958459 
14150 0.958823 
14200 0.959171 
14250 0.959508 
14300 0.959845 
14350 0.960182 
14400 0.960519 
14450 0.960854 
14500 0.961166 
14550 0.961478 
14600 0.96179 
14650 0.962102 
14700 0.962414 
14750 0.962716 
14800 0.963004 
14850 0.963293 
14900 0.963581 
14950 0.96387 
15000 0.964159 
15050 0.964433 
15100 0.9647 
15150 0.964966 
15200 0.965233 
15250 0.9655 
15300 0.965767 
15350 0.966018 
15400 0.966265 
15450 0.966512 
15500 0.966759 
15550 0.967006 
15600 0.967253 
15650 0.967485 
15700 0.967714 
15750 0.967942 
15800 0.96817 
15850 0.968398 
15900 0.968627 
15950 0.968843 
16000 0.969055 
16050 0.969266 
16100 0.969477 
16150 0.969688 
16200 0.969899 
16250 0.970104 
16300 0.970299 
16350 0.970494 
16400 0.970689 
16450 0.970885 
16500 0.97108 
16550 0.971274 
16600 0.971455 
16650 0.971635 
16700 0.971816 
16750 0.971997 
16800 0.972178 
16850 0.972358 
16900 0.97253 
16950 0.972697 
17000 0.972864 
17050 0.973031 
17100 0.973199 
17150 0.973366 
17200 0.973532 
17250 0.973687 
17300 0.973841 
17350 0.973996 
17400 0.97415 
17450 0.974305 
17500 0.974459 
17550 0.97461 
17600 0.974753 
17650 0.974896 
17700 0.975039 
17750 0.975182 
17800 0.975325 
17850 0.975468 
17900 0.975606 
17950 0.975738 
18000 0.97587 
18050 0.976002 
18100 0.976135 
18150 0.976267 
18200 0.976399 
18250 0.976526 
18300 0.976649 
18350 0.976771 
18400 0.976893 
18450 0.977016 
18500 0.977138 
18550 0.977261 
18600 0.97738 
18650 0.977493 
18700 0.977606 
18750 0.977719 
18800 0.977832 
18850 0.977945 
18900 0.978058 
18950 0.978171 
19000 0.978275 
19050 0.97838 
19100 0.978485 
19150 0.978589 
19200 0.978694 
19250 0.978799 
19300 0.978903 
19350 0.979003 
19400 0.979099 
19450 0.979196 
19500 0.979293 
19550 0.97939 
19600 0.979487 
19650 0.979583 
19700 0.979679 
19750 0.979769 
19800 0.979858 
19850 0.979948 
19900 0.980038 
19950 0.980127 
20000 0.980217 
20050 0.980306 
20100 0.980393 
20150 0.980476 
20200 0.980559 
20250 0.980642 
20300 0.980725 
20350 0.980807 
20400 0.98089 
20450 0.980973 
20500 0.981053 
20550 0.981129 
20600 0.981206 
20650 0.981283 
20700 0.981359 
20750 0.981436 
20800 0.981513 
20850 0.98159 
20900 0.981663 
20950 0.981734 
21000 0.981805 
21050 0.981876 
21100 0.981947 
21150 0.982018 
21200 0.982089 
21250 0.98216 
21300 0.982229 
21350 0.982295 
21400 0.98236 
21450 0.982426 
21500 0.982492 
21550 0.982558 
21600 0.982623 
21650 0.982689 
21700 0.982754 
21750 0.982815 
21800 0.982876 
21850 0.982937 
21900 0.982998 
21950 0.983058 
22000 0.983119 
22050 0.98318 
22100 0.983241 
22150 0.983299 
22200 0.983356 
22250 0.983412 
22300 0.983468 
22350 0.983525 
22400 0.983581 
22450 0.983637 
22500 0.983693 
22550 0.98375 
22600 0.983802 
22650 0.983854 
22700 0.983907 
22750 0.983959 
22800 0.984011 
22850 0.984063 
22900 0.984115 
22950 0.984167 
23000 0.984219 
23050 0.984267 
23100 0.984316 
23150 0.984364 
23200 0.984412 
23250 0.984461 
23300 0.984509 
23350 0.984557 
23400 0.984606 
23450 0.984653 
23500 0.984698 
23550 0.984743 
23600 0.984788 
23650 0.984832 
23700 0.984877 
23750 0.984922 
23800 0.984967 
23850 0.985011 
23900 0.985056 
23950 0.985098 
24000 0.985139 
24050 0.985181 
24100 0.985222 
24150 0.985264 
24200 0.985305 
24250 0.985347 
24300 0.985388 
24350 0.98543 
24400 0.985469 
24450 0.985508 
24500 0.985546 
24550 0.985584 
24600 0.985623 
24650 0.985661 
24700 0.9857 
24750 0.985738 
24800 0.985777 
24850 0.985815 
24900 0.985851 
24950 0.985886 
25000 0.985922 
25050 0.985957 
25100 0.985993 
25150 0.986029 
25200 0.986064 
25250 0.9861 
25300 0.986136 
25350 0.98617 
25400 0.986203 
25450 0.986236 
25500 0.986269 
25550 0.986302 
25600 0.986335 
25650 0.986368 
25700 0.986401 
25750 0.986435 
25800 0.986468 
25850 0.986499 
25900 0.98653 
25950 0.986561 
26000 0.986591 
26050 0.986622 
26100 0.986653 
26150 0.986683 
26200 0.986714 
26250 0.986745 
26300 0.986775 
26350 0.986805 
26400 0.986833 
26450 0.986862 
26500 0.98689 
26550 0.986919 
26600 0.986947 
26650 0.986976 
26700 0.987004 
26750 0.987032 
26800 0.987061 
26850 0.987089 
26900 0.987116 
26950 0.987142 
27000 0.987168 
27050 0.987195 
27100 0.987221 
27150 0.987247 
27200 0.987274 
27250 0.9873 
27300 0.987327 
27350 0.987353 
27400 0.987378 
27450 0.987403 
27500 0.987427 
27550 0.987452 
27600 0.987476 
27650 0.987501 
27700 0.987525 
27750 0.98755 
27800 0.987574 
27850 0.987599 
27900 0.987623 
27950 0.987646 
28000 0.987669 
28050 0.987691 
28100 0.987714 
28150 0.987737 
28200 0.98776 
28250 0.987782 
28300 0.987805 
28350 0.987828 
28400 0.987851 
28450 0.987873 
28500 0.987895 
28550 0.987916 
28600 0.987937 
28650 0.987958 
28700 0.987979 
28750 0.988 
28800 0.988021 
28850 0.988042 
28900 0.988063 
28950 0.988085 
29000 0.988106 
29050 0.988126 
29100 0.988145 
29150 0.988165 
29200 0.988184 
29250 0.988204 
29300 0.988224 
29350 0.988243 
29400 0.988263 
29450 0.988283 
29500 0.988302 
29550 0.988322 
29600 0.988341 
29650 0.988359 
29700 0.988377 
29750 0.988396 
29800 0.988414 
29850 0.988432 
29900 0.98845 
29950 0.988468 
30000 0.988487 
30050 0.988505 
30100 0.988523 
30150 0.988541 
30200 0.988559 
30250 0.988576 
30300 0.988592 
30350 0.988609 
30400 0.988626 
30450 0.988643 
30500 0.98866 
30550 0.988677 
30600 0.988694 
30650 0.988711 
30700 0.988728 
30750 0.988745 
30800 0.988761 
30850 0.988777 
30900 0.988792 
30950 0.988808 
31000 0.988824 
31050 0.98884 
31100 0.988855 
31150 0.988871 
31200 0.988887 
31250 0.988903 
31300 0.988919 
31350 0.988934 
31400 0.988949 
31450 0.988964 
31500 0.988978 
31550 0.988993 
31600 0.989008 
31650 0.989022 
31700 0.989037 
31750 0.989052 
31800 0.989067 
31850 0.989081 
31900 0.989096 
31950 0.989111 
32000 0.989124 
32050 0.989138 
32100 0.989152 
32150 0.989165 
32200 0.989179 
32250 0.989193 
32300 0.989207 
32350 0.98922 
32400 0.989234 
32450 0.989248 
32500 0.989261 
32550 0.989275 
32600 0.989288 
32650 0.989301 
32700 0.989314 
32750 0.989327 
32800 0.989339 
32850 0.989352 
32900 0.989365 
32950 0.989378 
33000 0.98939 
33050 0.989403 
33100 0.989416 
33150 0.989429 
33200 0.989441 
33250 0.989453 
33300 0.989465 
33350 0.989477 
33400 0.989489 
33450 0.989501 
33500 0.989513 
33550 0.989525 
33600 0.989537 
33650 0.989549 
33700 0.98956 
33750 0.989572 
33800 0.989584 
33850 0.989596 
33900 0.989608 
33950 0.989619 
34000 0.98963 
34050 0.989641 
34100 0.989652 
34150 0.989663 
34200 0.989674 
34250 0.989685 
34300 0.989696 
34350 0.989707 
34400 0.989718 
34450 0.989729 
34500 0.989741 
34550 0.989751 
34600 0.989762 
34650 0.989772 
34700 0.989782 
34750 0.989793 
34800 0.989803 
34850 0.989813 
34900 0.989824 
34950 0.989834 
35000 0.989845 
35050 0.989855 
35100 0.989865 
35150 0.989876 
35200 0.989886 
35250 0.989896 
35300 0.989905 
35350 0.989915 
35400 0.989925 
35450 0.989934 
35500 0.989944 
35550 0.989954 
35600 0.989963 
35650 0.989973 
35700 0.989983 
35750 0.989992 
35800 0.990002 
35850 0.990012 
35900 0.990021 
35950 0.99003 
36000 0.990039 
36050 0.990048 
36100 0.990057 
36150 0.990066 
36200 0.990075 
36250 0.990084 
36300 0.990093 
36350 0.990102 
36400 0.990112 
36450 0.990121 
36500 0.99013 
36550 0.990139 
36600 0.990148 
36650 0.990156 
36700 0.990165 
36750 0.990173 
36800 0.990181 
36850 0.99019 
36900 0.990198 
36950 0.990207 
37000 0.990215 
37050 0.990224 
37100 0.990232 
37150 0.990241 
37200 0.990249 
37250 0.990257 
37300 0.990266 
37350 0.990274 
37400 0.990282 
37450 0.99029 
37500 0.990298 
37550 0.990305 
37600 0.990313 
37650 0.990321 
37700 0.990329 
37750 0.990337 
37800 0.990345 
37850 0.990353 
37900 0.990361 
37950 0.990369 
38000 0.990377 
38050 0.990384 
38100 0.990392 
38150 0.990399 
38200 0.990407 
38250 0.990414 
38300 0.990421 
38350 0.990429 
38400 0.990436 
38450 0.990444 
38500 0.990451 
38550 0.990458 
38600 0.990466 
38650 0.990473 
38700 0.990481 
38750 0.990488 
38800 0.990495 
38850 0.990502 
38900 0.990509 
38950 0.990516 
39000 0.990523 
39050 0.99053 
39100 0.990537 
39150 0.990544 
39200 0.990551 
39250 0.990558 
39300 0.990565 
39350 0.990572 
39400 0.990579 
39450 0.990586 
39500 0.990592 
39550 0.990599 
39600 0.990606 
39650 0.990612 
39700 0.990619 
39750 0.990625 
39800 0.990632 
39850 0.990638 
39900 0.990645 
39950 0.990651 
40000 0.990658 
40050 0.990664 
40100 0.990671 
40150 0.990677 
40200 0.990684 
40250 0.99069 
40300 0.990697 
40350 0.990703 
40400 0.990709 
40450 0.990715 
40500 0.990721 
40550 0.990728 
40600 0.990734 
40650 0.99074 
40700 0.990746 
40750 0.990752 
40800 0.990758 
40850 0.990764 
40900 0.99077 
40950 0.990776 
41000 0.990782 
41050 0.990789 
41100 0.990795 
41150 0.9908 
41200 0.990806 
41250 0.990812 
41300 0.990818 
41350 0.990823 
41400 0.990829 
41450 0.990835 
41500 0.990841 
41550 0.990846 
41600 0.990852 
41650 0.990858 
41700 0.990864 
41750 0.990869 
41800 0.990875 
41850 0.990881 
41900 0.990887 
41950 0.990892 
42000 0.990897 
42050 0.990903 
42100 0.990908 
42150 0.990914 
42200 0.990919 
42250 0.990924 
42300 0.99093 
42350 0.990935 
42400 0.990941 
42450 0.990946 
42500 0.990951 
42550 0.990957 
42600 0.990962 
42650 0.990968 
42700 0.990973 
42750 0.990978 
42800 0.990983 
42850 0.990988 
42900 0.990993 
42950 0.990999 
43000 0.991004 
43050 0.991009 
43100 0.991014 
43150 0.991019 
43200 0.991024 
43250 0.991029 
43300 0.991034 
43350 0.991039 
43400 0.991044 
43450 0.991049 
43500 0.991054 
43550 0.991059 
43600 0.991064 
43650 0.991069 
43700 0.991074 
43750 0.991079 
43800 0.991083 
43850 0.991088 
43900 0.991093 
43950 0.991098 
44000 0.991103 
44050 0.991107 
44100 0.991112 
44150 0.991117 
44200 0.991122 
44250 0.991126 
44300 0.991131 
44350 0.991136 
44400 0.991141 
44450 0.991145 
44500 0.99115 
44550 0.991154 
44600 0.991159 
44650 0.991163 
44700 0.991168 
44750 0.991172 
44800 0.991177 
44850 0.991181 
44900 0.991186 
44950 0.991191 
45000 0.991195 
45050 0.9912 
45100 0.991204 
45150 0.991209 
45200 0.991213 
45250 0.991218 
45300 0.991222 
45350 0.991226 
45400 0.991231 
45450 0.991235 
45500 0.991239 
45550 0.991243 
45600 0.991248 
45650 0.991252 
45700 0.991256 
45750 0.99126 
45800 0.991265 
45850 0.991269 
45900 0.991273 
45950 0.991277 
46000 0.991282 
46050 0.991286 
46100 0.99129 
46150 0.991294 
46200 0.991299 
46250 0.991303 
46300 0.991307 
46350 0.991311 
46400 0.991315 
46450 0.991319 
46500 0.991323 
46550 0.991327 
46600 0.991331 
46650 0.991335 
46700 0.991339 
46750 0.991343 
46800 0.991347 
46850 0.991351 
46900 0.991355 
46950 0.991359 
47000 0.991363 
47050 0.991367 
47100 0.991371 
47150 0.991375 
47200 0.991379 
47250 0.991382 
47300 0.991386 
47350 0.99139 
47400 0.991394 
47450 0.991398 
47500 0.991401 
47550 0.991405 
47600 0.991409 
47650 0.991413 
47700 0.991417 
47750 0.99142 
47800 0.991424 
47850 0.991428 
47900 0.991432 
47950 0.991436 
48000 0.991439 
48050 0.991443 
48100 0.991447 
48150 0.99145 
48200 0.991454 
48250 0.991457 
48300 0.991461 
48350 0.991465 
48400 0.991468 
48450 0.991472 
48500 0.991476 
48550 0.991479 
48600 0.991483 
48650 0.991486 
48700 0.99149 
48750 0.991494 
48800 0.991497 
48850 0.991501 
48900 0.991504 
48950 0.991508 
49000 0.991511 
49050 0.991515 
49100 0.991518 
49150 0.991522 
49200 0.991525 
49250 0.991528 
49300 0.991532 
49350 0.991535 
49400 0.991539 
49450 0.991542 
49500 0.991546 
49550 0.991549 
49600 0.991552 
49650 0.991556 
49700 0.991559 
49750 0.991563 
49800 0.991566 
49850 0.99157 
49900 0.991573 
49950 0.991576 
50000 0.991579 
50050 0.991583 
50100 0.991586 
50150 0.991589 
50200 0.991592 
50250 0.991596 
50300 0.991599 
50350 0.991602 
50400 0.991605 
50450 0.991609 
50500 0.991612 
50550 0.991615 
50600 0.991618 
50650 0.991622 
50700 0.991625 
50750 0.991628 
50800 0.991631 
50850 0.991635 
50900 0.991638 
50950 0.991641 
51000 0.991644 
51050 0.991647 
51100 0.99165 
51150 0.991653 
51200 0.991656 
51250 0.991659 
51300 0.991662 
51350 0.991665 
51400 0.991669 
51450 0.991672 
51500 0.991675 
51550 0.991678 
51600 0.991681 
51650 0.991684 
51700 0.991687 
51750 0.99169 
51800 0.991693 
51850 0.991696 
51900 0.991699 
51950 0.991702 
52000 0.991705 
52050 0.991708 
52100 0.991711 
52150 0.991714 
52200 0.991717 
52250 0.99172 
52300 0.991723 
52350 0.991726 
52400 0.991729 
52450 0.991732 
52500 0.991735 
52550 0.991737 
52600 0.99174 
52650 0.991743 
52700 0.991746 
52750 0.991749 
52800 0.991752 
52850 0.991755 
52900 0.991758 
52950 0.991761 
53000 0.991764 
53050 0.991766 
53100 0.991769 
53150 0.991772 
53200 0.991775 
53250 0.991778 
53300 0.99178 
53350 0.991783 
53400 0.991786 
53450 0.991789 
53500 0.991791 
53550 0.991794 
53600 0.991797 
53650 0.9918 
53700 0.991803 
53750 0.991805 
53800 0.991808 
53850 0.991811 
53900 0.991814 
53950 0.991817 
54000 0.991819 
54050 0.991822 
54100 0.991825 
54150 0.991827 
54200 0.99183 
54250 0.991832 
54300 0.991835 
54350 0.991838 
54400 0.99184 
54450 0.991843 
54500 0.991846 
54550 0.991848 
54600 0.991851 
54650 0.991854 
54700 0.991856 
54750 0.991859 
54800 0.991862 
54850 0.991864 
54900 0.991867 
54950 0.99187 
55000 0.991872 
55050 0.991875 
55100 0.991877 
55150 0.99188 
55200 0.991883 
55250 0.991885 
55300 0.991888 
55350 0.99189 
55400 0.991893 
55450 0.991895 
55500 0.991898 
55550 0.9919 
55600 0.991903 
55650 0.991905 
55700 0.991908 
55750 0.99191 
55800 0.991913 
55850 0.991916 
55900 0.991918 
55950 0.991921 
56000 0.991923 
56050 0.991926 
56100 0.991928 
56150 0.991931 
56200 0.991933 
56250 0.991935 
56300 0.991938 
56350 0.99194 
56400 0.991943 
56450 0.991945 
56500 0.991948 
56550 0.99195 
56600 0.991952 
56650 0.991955 
56700 0.991957 
56750 0.99196 
56800 0.991962 
56850 0.991965 
56900 0.991967 
56950 0.991969 
57000 0.991972 
57050 0.991974 
57100 0.991977 
57150 0.991979 
57200 0.991981 
57250 0.991984 
57300 0.991986 
57350 0.991988 
57400 0.991991 
57450 0.991993 
57500 0.991995 
57550 0.991998 
57600 0.992 
57650 0.992002 
57700 0.992005 
57750 0.992007 
57800 0.992009 
57850 0.992012 
57900 0.992014 
57950 0.992016 
58000 0.992018 
58050 0.992021 
58100 0.992023 
58150 0.992025 
58200 0.992028 
58250 0.99203 
58300 0.992032 
58350 0.992034 
58400 0.992037 
58450 0.992039 
58500 0.992041 
58550 0.992043 
58600 0.992046 
58650 0.992048 
58700 0.99205 
58750 0.992052 
58800 0.992055 
58850 0.992057 
58900 0.992059 
58950 0.992061 
59000 0.992063 
59050 0.992066 
59100 0.992068 
59150 0.99207 
