#F U:\Beamline I20\I20-1_EDE\Wigglers\xop\83mm-small-wiggler\EDE line ranges\0p47T-300mA-0p12x0p8mrad.dat
#C I20EDE 0.47T 300mA 0.12x0.8mrad
#S 1 File written by xplot on Tue Sep 10 16:45:22 2013
#N 2
#L    Energy [eV]  Flux [ph/s/0.1%bw]
50 1.07889E+013 
100 1.7033E+013 
150 2.2159E+013 
200 2.66195E+013 
250 3.06045E+013 
300 3.42173E+013 
350 3.75229E+013 
400 4.05659E+013 
450 4.33789E+013 
500 4.59868E+013 
550 4.84095E+013 
600 5.0663E+013 
650 5.2761E+013 
700 5.4715E+013 
750 5.65349E+013 
800 5.82296E+013 
850 5.98067E+013 
900 6.12734E+013 
950 6.26358E+013 
1000 6.38998E+013 
1050 6.50707E+013 
1100 6.61531E+013 
1150 6.71518E+013 
1200 6.80708E+013 
1250 6.8914E+013 
1300 6.96852E+013 
1350 7.03877E+013 
1400 7.10248E+013 
1450 7.15995E+013 
1500 7.21147E+013 
1550 7.25731E+013 
1600 7.29774E+013 
1650 7.333E+013 
1700 7.36332E+013 
1750 7.38893E+013 
1800 7.41004E+013 
1850 7.42686E+013 
1900 7.43958E+013 
1950 7.44839E+013 
2000 7.45346E+013 
2050 7.45496E+013 
2100 7.45307E+013 
2150 7.44793E+013 
2200 7.43969E+013 
2250 7.42851E+013 
2300 7.41451E+013 
2350 7.39784E+013 
2400 7.37861E+013 
2450 7.35696E+013 
2500 7.33299E+013 
2550 7.30683E+013 
2600 7.27858E+013 
2650 7.24835E+013 
2700 7.21623E+013 
2750 7.18234E+013 
2800 7.14675E+013 
2850 7.10955E+013 
2900 7.07085E+013 
2950 7.03071E+013 
3000 6.98921E+013 
3050 6.94645E+013 
3100 6.90248E+013 
3150 6.85738E+013 
3200 6.81122E+013 
3250 6.76406E+013 
3300 6.71597E+013 
3350 6.66701E+013 
3400 6.61724E+013 
3450 6.56671E+013 
3500 6.51548E+013 
3550 6.46361E+013 
3600 6.41113E+013 
3650 6.3581E+013 
3700 6.30457E+013 
3750 6.25058E+013 
3800 6.19617E+013 
3850 6.14139E+013 
3900 6.08627E+013 
3950 6.03085E+013 
4000 5.97518E+013 
4050 5.91927E+013 
4100 5.86318E+013 
4150 5.80692E+013 
4200 5.75054E+013 
4250 5.69405E+013 
4300 5.63749E+013 
4350 5.58089E+013 
4400 5.52428E+013 
4450 5.46767E+013 
4500 5.41109E+013 
4550 5.35456E+013 
4600 5.29811E+013 
4650 5.24176E+013 
4700 5.18553E+013 
4750 5.12943E+013 
4800 5.07349E+013 
4850 5.01771E+013 
4900 4.96213E+013 
4950 4.90675E+013 
5000 4.85159E+013 
5050 4.79666E+013 
5100 4.74198E+013 
5150 4.68757E+013 
5200 4.63342E+013 
5250 4.57956E+013 
5300 4.52599E+013 
5350 4.47273E+013 
5400 4.41978E+013 
5450 4.36716E+013 
5500 4.31488E+013 
5550 4.26293E+013 
5600 4.21133E+013 
5650 4.1601E+013 
5700 4.10922E+013 
5750 4.05872E+013 
5800 4.00859E+013 
5850 3.95885E+013 
5900 3.90949E+013 
5950 3.86052E+013 
6000 3.81195E+013 
6050 3.76378E+013 
6100 3.71601E+013 
6150 3.66866E+013 
6200 3.62171E+013 
6250 3.57518E+013 
6300 3.52906E+013 
6350 3.48336E+013 
6400 3.43808E+013 
6450 3.39322E+013 
6500 3.34879E+013 
6550 3.30478E+013 
6600 3.2612E+013 
6650 3.21804E+013 
6700 3.17531E+013 
6750 3.13301E+013 
6800 3.09113E+013 
6850 3.04968E+013 
6900 3.00866E+013 
6950 2.96807E+013 
7000 2.9279E+013 
7050 2.88816E+013 
7100 2.84884E+013 
7150 2.80995E+013 
7200 2.77147E+013 
7250 2.73342E+013 
7300 2.69579E+013 
7350 2.65858E+013 
7400 2.62178E+013 
7450 2.5854E+013 
7500 2.54943E+013 
7550 2.51388E+013 
7600 2.47873E+013 
7650 2.44399E+013 
7700 2.40965E+013 
7750 2.37572E+013 
7800 2.34219E+013 
7850 2.30905E+013 
7900 2.27631E+013 
7950 2.24397E+013 
8000 2.21201E+013 
8050 2.18044E+013 
8100 2.14925E+013 
8150 2.11845E+013 
8200 2.08803E+013 
8250 2.05798E+013 
8300 2.02831E+013 
8350 1.999E+013 
8400 1.97007E+013 
8450 1.9415E+013 
8500 1.91329E+013 
8550 1.88543E+013 
8600 1.85794E+013 
8650 1.83079E+013 
8700 1.804E+013 
8750 1.77755E+013 
8800 1.75144E+013 
8850 1.72568E+013 
8900 1.70025E+013 
8950 1.67515E+013 
9000 1.65038E+013 
9050 1.62594E+013 
9100 1.60182E+013 
9150 1.57803E+013 
9200 1.55455E+013 
9250 1.53138E+013 
9300 1.50853E+013 
9350 1.48598E+013 
9400 1.46374E+013 
9450 1.4418E+013 
9500 1.42015E+013 
9550 1.39881E+013 
9600 1.37775E+013 
9650 1.35698E+013 
9700 1.3365E+013 
9750 1.31629E+013 
9800 1.29637E+013 
9850 1.27672E+013 
9900 1.25735E+013 
9950 1.23825E+013 
10000 1.21941E+013 
10050 1.20083E+013 
10100 1.18252E+013 
10150 1.16446E+013 
10200 1.14666E+013 
10250 1.12911E+013 
10300 1.11181E+013 
10350 1.09475E+013 
10400 1.07793E+013 
10450 1.06136E+013 
10500 1.04502E+013 
10550 1.02891E+013 
10600 1.01304E+013 
10650 9.97389E+012 
10700 9.81968E+012 
10750 9.66768E+012 
10800 9.51789E+012 
10850 9.37026E+012 
10900 9.22477E+012 
10950 9.08139E+012 
11000 8.94011E+012 
11050 8.80088E+012 
11100 8.66369E+012 
11150 8.5285E+012 
11200 8.3953E+012 
11250 8.26405E+012 
11300 8.13473E+012 
11350 8.00732E+012 
11400 7.88179E+012 
11450 7.75811E+012 
11500 7.63627E+012 
11550 7.51623E+012 
11600 7.39798E+012 
11650 7.28148E+012 
11700 7.16672E+012 
11750 7.05368E+012 
11800 6.94232E+012 
11850 6.83263E+012 
11900 6.72458E+012 
11950 6.61816E+012 
12000 6.51333E+012 
12050 6.41008E+012 
12100 6.30839E+012 
12150 6.20823E+012 
12200 6.10959E+012 
12250 6.01244E+012 
12300 5.91676E+012 
12350 5.82253E+012 
12400 5.72973E+012 
12450 5.63835E+012 
12500 5.54836E+012 
12550 5.45974E+012 
12600 5.37247E+012 
12650 5.28653E+012 
12700 5.20191E+012 
12750 5.11859E+012 
12800 5.03655E+012 
12850 4.95576E+012 
12900 4.87622E+012 
12950 4.7979E+012 
13000 4.72079E+012 
13050 4.64487E+012 
13100 4.57012E+012 
13150 4.49653E+012 
13200 4.42407E+012 
13250 4.35274E+012 
13300 4.28251E+012 
13350 4.21337E+012 
13400 4.14531E+012 
13450 4.07831E+012 
13500 4.01235E+012 
13550 3.94741E+012 
13600 3.88349E+012 
13650 3.82057E+012 
13700 3.75863E+012 
13750 3.69766E+012 
13800 3.63765E+012 
13850 3.57857E+012 
13900 3.52043E+012 
13950 3.46319E+012 
14000 3.40686E+012 
14050 3.35141E+012 
14100 3.29683E+012 
14150 3.24312E+012 
14200 3.19025E+012 
14250 3.13821E+012 
14300 3.087E+012 
14350 3.0366E+012 
14400 2.98699E+012 
14450 2.93817E+012 
14500 2.89013E+012 
14550 2.84284E+012 
14600 2.79631E+012 
14650 2.75052E+012 
14700 2.70545E+012 
14750 2.6611E+012 
14800 2.61746E+012 
14850 2.57451E+012 
14900 2.53224E+012 
14950 2.49066E+012 
15000 2.44973E+012 
15050 2.40946E+012 
15100 2.36983E+012 
15150 2.33084E+012 
15200 2.29247E+012 
15250 2.25472E+012 
15300 2.21757E+012 
15350 2.18102E+012 
15400 2.14506E+012 
15450 2.10967E+012 
15500 2.07485E+012 
15550 2.04059E+012 
15600 2.00688E+012 
15650 1.97372E+012 
15700 1.94109E+012 
15750 1.90899E+012 
15800 1.87741E+012 
15850 1.84633E+012 
15900 1.81576E+012 
15950 1.78568E+012 
16000 1.75609E+012 
16050 1.72698E+012 
16100 1.69834E+012 
16150 1.67016E+012 
16200 1.64244E+012 
16250 1.61517E+012 
16300 1.58834E+012 
16350 1.56195E+012 
16400 1.53599E+012 
16450 1.51045E+012 
16500 1.48533E+012 
16550 1.46061E+012 
16600 1.4363E+012 
16650 1.41238E+012 
16700 1.38885E+012 
16750 1.36571E+012 
16800 1.34295E+012 
16850 1.32055E+012 
16900 1.29853E+012 
16950 1.27686E+012 
17000 1.25555E+012 
17050 1.23458E+012 
17100 1.21396E+012 
17150 1.19368E+012 
17200 1.17373E+012 
17250 1.1541E+012 
17300 1.1348E+012 
17350 1.11582E+012 
17400 1.09714E+012 
17450 1.07878E+012 
17500 1.06071E+012 
17550 1.04295E+012 
17600 1.02547E+012 
17650 1.00828E+012 
17700 9.91378E+011 
17750 9.74752E+011 
17800 9.584E+011 
17850 9.42317E+011 
17900 9.265E+011 
17950 9.10943E+011 
18000 8.95644E+011 
18050 8.80597E+011 
18100 8.65799E+011 
18150 8.51245E+011 
18200 8.36932E+011 
18250 8.22855E+011 
18300 8.09012E+011 
18350 7.95398E+011 
18400 7.82009E+011 
18450 7.68842E+011 
18500 7.55893E+011 
18550 7.43159E+011 
18600 7.30636E+011 
18650 7.18321E+011 
18700 7.06211E+011 
18750 6.94301E+011 
18800 6.82589E+011 
18850 6.71072E+011 
18900 6.59747E+011 
18950 6.4861E+011 
19000 6.37657E+011 
19050 6.26888E+011 
19100 6.16297E+011 
19150 6.05883E+011 
19200 5.95643E+011 
19250 5.85573E+011 
19300 5.75671E+011 
19350 5.65934E+011 
19400 5.5636E+011 
19450 5.46945E+011 
19500 5.37687E+011 
19550 5.28585E+011 
19600 5.19634E+011 
19650 5.10832E+011 
19700 5.02178E+011 
19750 4.93669E+011 
19800 4.85302E+011 
19850 4.77074E+011 
19900 4.68985E+011 
19950 4.61031E+011 
20000 4.5321E+011 
20050 4.45521E+011 
20100 4.37959E+011 
20150 4.30525E+011 
20200 4.23216E+011 
20250 4.16029E+011 
20300 4.08962E+011 
20350 4.02015E+011 
20400 3.95184E+011 
20450 3.88467E+011 
20500 3.81863E+011 
20550 3.75371E+011 
20600 3.68987E+011 
20650 3.62711E+011 
20700 3.5654E+011 
20750 3.50473E+011 
20800 3.44509E+011 
20850 3.38644E+011 
20900 3.32878E+011 
20950 3.2721E+011 
21000 3.21637E+011 
21050 3.16157E+011 
21100 3.1077E+011 
21150 3.05474E+011 
21200 3.00267E+011 
21250 2.95148E+011 
21300 2.90116E+011 
21350 2.85168E+011 
21400 2.80304E+011 
21450 2.75522E+011 
21500 2.7082E+011 
21550 2.66198E+011 
21600 2.61654E+011 
21650 2.57187E+011 
21700 2.52796E+011 
21750 2.48478E+011 
21800 2.44234E+011 
21850 2.40061E+011 
21900 2.3596E+011 
21950 2.31927E+011 
22000 2.27963E+011 
22050 2.24066E+011 
22100 2.20234E+011 
22150 2.16468E+011 
22200 2.12766E+011 
22250 2.09126E+011 
22300 2.05548E+011 
22350 2.0203E+011 
22400 1.98573E+011 
22450 1.95174E+011 
22500 1.91832E+011 
22550 1.88548E+011 
22600 1.85319E+011 
22650 1.82144E+011 
22700 1.79024E+011 
22750 1.75957E+011 
22800 1.72942E+011 
22850 1.69978E+011 
22900 1.67064E+011 
22950 1.642E+011 
23000 1.61385E+011 
23050 1.58617E+011 
23100 1.55897E+011 
23150 1.53223E+011 
23200 1.50594E+011 
23250 1.4801E+011 
23300 1.4547E+011 
23350 1.42973E+011 
23400 1.40519E+011 
23450 1.38107E+011 
23500 1.35735E+011 
23550 1.33404E+011 
23600 1.31113E+011 
23650 1.28861E+011 
23700 1.26647E+011 
23750 1.24471E+011 
23800 1.22332E+011 
23850 1.2023E+011 
23900 1.18163E+011 
23950 1.16132E+011 
24000 1.14135E+011 
24050 1.12173E+011 
24100 1.10244E+011 
24150 1.08347E+011 
24200 1.06484E+011 
24250 1.04652E+011 
24300 1.02851E+011 
24350 1.01081E+011 
24400 9.93415E+010 
24450 9.76316E+010 
24500 9.59509E+010 
24550 9.4299E+010 
24600 9.26753E+010 
24650 9.10793E+010 
24700 8.95107E+010 
24750 8.79688E+010 
24800 8.64534E+010 
24850 8.49639E+010 
24900 8.34999E+010 
24950 8.2061E+010 
25000 8.06466E+010 
25050 7.92566E+010 
25100 7.78903E+010 
25150 7.65474E+010 
25200 7.52275E+010 
25250 7.39302E+010 
25300 7.26552E+010 
25350 7.1402E+010 
25400 7.01703E+010 
25450 6.89597E+010 
25500 6.77699E+010 
25550 6.66004E+010 
25600 6.5451E+010 
25650 6.43214E+010 
25700 6.32111E+010 
25750 6.21199E+010 
25800 6.10474E+010 
25850 5.99933E+010 
25900 5.89573E+010 
25950 5.79391E+010 
26000 5.69383E+010 
26050 5.59548E+010 
26100 5.49881E+010 
26150 5.40381E+010 
26200 5.31044E+010 
26250 5.21867E+010 
26300 5.12848E+010 
26350 5.03984E+010 
26400 4.95272E+010 
26450 4.8671E+010 
26500 4.78295E+010 
26550 4.70025E+010 
26600 4.61897E+010 
26650 4.53909E+010 
26700 4.46058E+010 
26750 4.38343E+010 
26800 4.3076E+010 
26850 4.23307E+010 
26900 4.15983E+010 
26950 4.08785E+010 
27000 4.01711E+010 
27050 3.94759E+010 
27100 3.87926E+010 
27150 3.81211E+010 
27200 3.74612E+010 
27250 3.68126E+010 
27300 3.61752E+010 
27350 3.55488E+010 
27400 3.49332E+010 
27450 3.43282E+010 
27500 3.37336E+010 
27550 3.31492E+010 
27600 3.2575E+010 
27650 3.20106E+010 
27700 3.1456E+010 
27750 3.09109E+010 
27800 3.03753E+010 
27850 2.98489E+010 
27900 2.93315E+010 
27950 2.88231E+010 
28000 2.83234E+010 
28050 2.78324E+010 
28100 2.73499E+010 
28150 2.68756E+010 
28200 2.64096E+010 
28250 2.59516E+010 
28300 2.55015E+010 
28350 2.50592E+010 
28400 2.46245E+010 
28450 2.41974E+010 
28500 2.37776E+010 
28550 2.3365E+010 
28600 2.29596E+010 
28650 2.25612E+010 
28700 2.21697E+010 
28750 2.17849E+010 
28800 2.14068E+010 
28850 2.10352E+010 
28900 2.06701E+010 
28950 2.03113E+010 
29000 1.99586E+010 
29050 1.96121E+010 
29100 1.92715E+010 
29150 1.89369E+010 
29200 1.8608E+010 
29250 1.82848E+010 
29300 1.79672E+010 
29350 1.76552E+010 
29400 1.73485E+010 
29450 1.70471E+010 
29500 1.67509E+010 
29550 1.64598E+010 
29600 1.61738E+010 
29650 1.58928E+010 
29700 1.56166E+010 
29750 1.53452E+010 
29800 1.50785E+010 
29850 1.48164E+010 
29900 1.45588E+010 
29950 1.43057E+010 
30000 1.4057E+010 
30050 1.38126E+010 
30100 1.35724E+010 
30150 1.33364E+010 
30200 1.31045E+010 
30250 1.28766E+010 
30300 1.26527E+010 
30350 1.24326E+010 
30400 1.22163E+010 
30450 1.20038E+010 
30500 1.1795E+010 
30550 1.15898E+010 
30600 1.13881E+010 
30650 1.119E+010 
30700 1.09953E+010 
30750 1.08039E+010 
30800 1.06159E+010 
30850 1.04312E+010 
30900 1.02496E+010 
30950 1.00712E+010 
31000 9.89591E+009 
31050 9.72364E+009 
31100 9.55436E+009 
31150 9.38802E+009 
31200 9.22457E+009 
31250 9.06395E+009 
31300 8.90612E+009 
31350 8.75103E+009 
31400 8.59863E+009 
31450 8.44888E+009 
31500 8.30173E+009 
31550 8.15713E+009 
31600 8.01505E+009 
31650 7.87543E+009 
31700 7.73823E+009 
31750 7.60342E+009 
31800 7.47095E+009 
31850 7.34078E+009 
31900 7.21287E+009 
31950 7.08718E+009 
32000 6.96368E+009 
32050 6.84232E+009 
32100 6.72308E+009 
32150 6.6059E+009 
32200 6.49076E+009 
32250 6.37762E+009 
32300 6.26645E+009 
32350 6.15721E+009 
32400 6.04987E+009 
32450 5.94439E+009 
32500 5.84075E+009 
32550 5.73891E+009 
32600 5.63884E+009 
32650 5.54051E+009 
32700 5.44389E+009 
32750 5.34896E+009 
32800 5.25567E+009 
32850 5.164E+009 
32900 5.07393E+009 
32950 4.98543E+009 
33000 4.89846E+009 
33050 4.81301E+009 
33100 4.72905E+009 
33150 4.64655E+009 
33200 4.56548E+009 
33250 4.48582E+009 
33300 4.40755E+009 
33350 4.33064E+009 
33400 4.25507E+009 
33450 4.18082E+009 
33500 4.10785E+009 
33550 4.03616E+009 
33600 3.96572E+009 
33650 3.8965E+009 
33700 3.82849E+009 
33750 3.76166E+009 
33800 3.69599E+009 
33850 3.63147E+009 
33900 3.56807E+009 
33950 3.50578E+009 
34000 3.44457E+009 
34050 3.38443E+009 
34100 3.32533E+009 
34150 3.26727E+009 
34200 3.21021E+009 
34250 3.15415E+009 
34300 3.09907E+009 
34350 3.04494E+009 
34400 2.99176E+009 
34450 2.93951E+009 
34500 2.88816E+009 
34550 2.83771E+009 
34600 2.78815E+009 
34650 2.73944E+009 
34700 2.69158E+009 
34750 2.64456E+009 
34800 2.59836E+009 
34850 2.55296E+009 
34900 2.50835E+009 
34950 2.46453E+009 
35000 2.42146E+009 
35050 2.37915E+009 
35100 2.33757E+009 
35150 2.29672E+009 
35200 2.25658E+009 
35250 2.21714E+009 
35300 2.17839E+009 
35350 2.14032E+009 
35400 2.10291E+009 
35450 2.06615E+009 
35500 2.03003E+009 
35550 1.99455E+009 
35600 1.95968E+009 
35650 1.92542E+009 
35700 1.89176E+009 
35750 1.85868E+009 
35800 1.82618E+009 
35850 1.79425E+009 
35900 1.76288E+009 
35950 1.73206E+009 
36000 1.70177E+009 
36050 1.67201E+009 
36100 1.64277E+009 
36150 1.61404E+009 
36200 1.58581E+009 
36250 1.55808E+009 
36300 1.53082E+009 
36350 1.50405E+009 
36400 1.47774E+009 
36450 1.45189E+009 
36500 1.42649E+009 
36550 1.40154E+009 
36600 1.37702E+009 
36650 1.35293E+009 
36700 1.32926E+009 
36750 1.30601E+009 
36800 1.28316E+009 
36850 1.26071E+009 
36900 1.23865E+009 
36950 1.21697E+009 
37000 1.19568E+009 
37050 1.17475E+009 
37100 1.1542E+009 
37150 1.134E+009 
37200 1.11415E+009 
37250 1.09465E+009 
37300 1.0755E+009 
37350 1.05667E+009 
37400 1.03818E+009 
37450 1.02001E+009 
37500 1.00215E+009 
37550 9.8461E+008 
37600 9.67375E+008 
37650 9.5044E+008 
37700 9.33802E+008 
37750 9.17454E+008 
37800 9.01392E+008 
37850 8.85611E+008 
37900 8.70106E+008 
37950 8.54872E+008 
38000 8.39904E+008 
38050 8.25197E+008 
38100 8.10748E+008 
38150 7.96551E+008 
38200 7.82603E+008 
38250 7.68898E+008 
38300 7.55433E+008 
38350 7.42204E+008 
38400 7.29206E+008 
38450 7.16435E+008 
38500 7.03887E+008 
38550 6.91559E+008 
38600 6.79446E+008 
38650 6.67545E+008 
38700 6.55853E+008 
38750 6.44365E+008 
38800 6.33077E+008 
38850 6.21988E+008 
38900 6.11092E+008 
38950 6.00386E+008 
39000 5.89868E+008 
39050 5.79534E+008 
39100 5.69381E+008 
39150 5.59406E+008 
39200 5.49604E+008 
39250 5.39975E+008 
39300 5.30514E+008 
39350 5.21218E+008 
39400 5.12085E+008 
39450 5.03112E+008 
39500 4.94296E+008 
39550 4.85634E+008 
39600 4.77124E+008 
39650 4.68762E+008 
39700 4.60547E+008 
39750 4.52476E+008 
39800 4.44546E+008 
39850 4.36755E+008 
39900 4.291E+008 
39950 4.21579E+008 
40000 4.1419E+008 
40050 4.0693E+008 
40100 3.99797E+008 
40150 3.92789E+008 
40200 3.85904E+008 
40250 3.79139E+008 
40300 3.72493E+008 
40350 3.65963E+008 
40400 3.59547E+008 
40450 3.53244E+008 
40500 3.47051E+008 
40550 3.40966E+008 
40600 3.34988E+008 
40650 3.29115E+008 
40700 3.23344E+008 
40750 3.17675E+008 
40800 3.12105E+008 
40850 3.06632E+008 
40900 3.01256E+008 
40950 2.95973E+008 
41000 2.90783E+008 
41050 2.85684E+008 
41100 2.80674E+008 
41150 2.75752E+008 
41200 2.70916E+008 
41250 2.66165E+008 
41300 2.61497E+008 
41350 2.5691E+008 
41400 2.52405E+008 
41450 2.47978E+008 
41500 2.43628E+008 
41550 2.39355E+008 
41600 2.35157E+008 
41650 2.31032E+008 
41700 2.2698E+008 
41750 2.22998E+008 
41800 2.19086E+008 
41850 2.15243E+008 
41900 2.11467E+008 
41950 2.07758E+008 
42000 2.04113E+008 
42050 2.00532E+008 
42100 1.97014E+008 
42150 1.93558E+008 
42200 1.90162E+008 
42250 1.86826E+008 
42300 1.83548E+008 
42350 1.80327E+008 
42400 1.77163E+008 
42450 1.74055E+008 
42500 1.71001E+008 
42550 1.68E+008 
42600 1.65052E+008 
42650 1.62156E+008 
42700 1.59311E+008 
42750 1.56515E+008 
42800 1.53768E+008 
42850 1.5107E+008 
42900 1.48419E+008 
42950 1.45814E+008 
43000 1.43255E+008 
43050 1.40741E+008 
43100 1.38271E+008 
43150 1.35844E+008 
43200 1.3346E+008 
43250 1.31118E+008 
43300 1.28816E+008 
43350 1.26555E+008 
43400 1.24334E+008 
43450 1.22152E+008 
43500 1.20008E+008 
43550 1.17901E+008 
43600 1.15832E+008 
43650 1.13798E+008 
43700 1.11801E+008 
43750 1.09838E+008 
43800 1.0791E+008 
43850 1.06016E+008 
43900 1.04154E+008 
43950 1.02326E+008 
44000 1.0053E+008 
44050 9.87647E+007 
44100 9.70308E+007 
44150 9.53272E+007 
44200 9.36536E+007 
44250 9.20093E+007 
44300 9.03938E+007 
44350 8.88067E+007 
44400 8.72474E+007 
44450 8.57155E+007 
44500 8.42105E+007 
44550 8.27318E+007 
44600 8.12791E+007 
44650 7.98519E+007 
44700 7.84497E+007 
44750 7.70722E+007 
44800 7.57188E+007 
44850 7.43891E+007 
44900 7.30828E+007 
44950 7.17993E+007 
45000 7.05384E+007 
45050 6.92997E+007 
45100 6.80826E+007 
45150 6.68869E+007 
45200 6.57122E+007 
45250 6.45582E+007 
45300 6.34243E+007 
45350 6.23104E+007 
45400 6.1216E+007 
45450 6.01408E+007 
45500 5.90845E+007 
45550 5.80467E+007 
45600 5.70272E+007 
45650 5.60255E+007 
45700 5.50414E+007 
45750 5.40746E+007 
45800 5.31247E+007 
45850 5.21916E+007 
45900 5.12748E+007 
45950 5.03741E+007 
46000 4.94892E+007 
46050 4.86198E+007 
46100 4.77657E+007 
46150 4.69266E+007 
46200 4.61022E+007 
46250 4.52923E+007 
46300 4.44966E+007 
46350 4.37149E+007 
46400 4.29469E+007 
46450 4.21924E+007 
46500 4.14511E+007 
46550 4.07228E+007 
46600 4.00073E+007 
46650 3.93044E+007 
46700 3.86139E+007 
46750 3.79354E+007 
46800 3.72689E+007 
46850 3.6614E+007 
46900 3.59707E+007 
46950 3.53387E+007 
47000 3.47177E+007 
47050 3.41077E+007 
47100 3.35084E+007 
47150 3.29196E+007 
47200 3.23411E+007 
47250 3.17728E+007 
47300 3.12145E+007 
47350 3.06659E+007 
47400 3.0127E+007 
47450 2.95976E+007 
47500 2.90775E+007 
47550 2.85665E+007 
47600 2.80645E+007 
47650 2.75713E+007 
47700 2.70867E+007 
47750 2.66107E+007 
